* Sea-Bird SBE37SM-RS232  Data File:
* FileName = C:\CE25007_recovery_data\16363_cal_dip_data.hex
* Software version SeatermV2 2.8.0.119
* Temperature SN = 16363
* Conductivity SN = 16363
* System UpLoad Time = May 14 2025 09:01:25
* sample interval = 10 seconds
* <ApplicationData>
* <Seaterm232>
* <SoftwareVersion>2.8.0.119</SoftwareVersion>
* <BuildDate>07-Nov-2018</BuildDate>
* </Seaterm232>
* </ApplicationData>
* <InstrumentState>
* <HardwareData DeviceType='SBE37SM-RS232' SerialNumber='03716363'>
*
*    <Manufacturer>Sea-Bird Electronics, Inc.</Manufacturer>
*
*    <FirmwareVersion>4.1</FirmwareVersion>
*
*    <FirmwareDate>Jan 17 2012 15:32:03</FirmwareDate>
*
*    <CommandSetVersion>1.0</CommandSetVersion>
*
*    <PCBAssembly>41660B</PCBAssembly>
*
*    <PCBSerialNum>126960</PCBSerialNum>
*
*    <PCBAssembly>41661D</PCBAssembly>
*
*    <PCBSerialNum>126956</PCBSerialNum>
*
*    <PCBAssembly>41720F</PCBAssembly>
*
*    <PCBSerialNum>126964</PCBSerialNum>
*
*    <MfgDate>01 Nov 2017</MfgDate>
*
*    <FirmwareLoader>SBE 37-232-V3 FirmwareLoader V 1.0</FirmwareLoader>
*
*    <InternalSensors>
*
*       <Sensor id='Temperature'>
*
*          <type>temperature-1</type>
*
*          <SerialNumber>03716363</SerialNumber>
*
*       </Sensor>
*
*       <Sensor id='Conductivity'>
*
*          <type>conductivity-1</type>
*
*          <SerialNumber>03716363</SerialNumber>
*
*       </Sensor>
*
*       <Sensor id='Pressure'>
*
*          <type>strain-0</type>
*
*          <SerialNumber>5231569</SerialNumber>
*
*       </Sensor>
*
*    </InternalSensors>
*
* </HardwareData>
* <StatusData DeviceType='SBE37SM-RS232' SerialNumber='03716363'>
*
*    <DateTime>2025-05-14T09:00:05</DateTime>
*
*    <EventSummary numEvents='3'/>
*
*    <Power>
*
*       <vMain>13.29</vMain>
*
*       <vLith> 3.00</vLith>
*
*    </Power>
*
*    <MemorySummary>
*
*       <Bytes>717150</Bytes>
*
*       <Samples>47810</Samples>
*
*       <SamplesFree>511430</SamplesFree>
*
*       <SampleLength>15</SampleLength>
*
*    </MemorySummary>
*
*    <AutonomousSampling>no, stop command</AutonomousSampling>
*
* </StatusData>
* <ConfigurationData DeviceType='SBE37SM-RS232' SerialNumber='03716363'>
*
*    <PressureInstalled>yes</PressureInstalled>
*
*    <PumpInstalled>yes</PumpInstalled>
*
*    <MinCondFreq>3300.0</MinCondFreq>
*
*    <SampleDataFormat>converted engineering alternate</SampleDataFormat>
*
*    <OutputSalinity>no</OutputSalinity>
*
*    <OutputSV>no</OutputSV>
*
*    <TxRealTime>no</TxRealTime>
*
*    <SampleInterval>10</SampleInterval>
*
*    <SyncMode>no</SyncMode>
*
* </ConfigurationData>
* <CalibrationCoefficients DeviceType='SBE37SM-RS232' SerialNumber='03716363'>
*
*    <Calibration format='TEMP1' id='Temperature'>
*
*       <SerialNum>03716363</SerialNum>
*
*       <CalDate>11-Apr-24</CalDate>
*
*       <A0>-8.673787e-05</A0>
*
*       <A1>2.956661e-04</A1>
*
*       <A2>-3.355988e-06</A2>
*
*       <A3>1.723611e-07</A3>
*
*    </Calibration>
*
*    <Calibration format='WBCOND0' id='Conductivity'>
*
*       <SerialNum>03716363</SerialNum>
*
*       <CalDate>11-Apr-24</CalDate>
*
*       <G>-9.769703e-01</G>
*
*       <H>1.256760e-01</H>
*
*       <I>-1.181896e-05</I>
*
*       <J>1.678056e-05</J>
*
*       <PCOR>-9.570000e-08</PCOR>
*
*       <TCOR>3.250000e-06</TCOR>
*
*       <WBOTC>1.494910e-07</WBOTC>
*
*    </Calibration>
*
*    <Calibration format='STRAIN0' id='Pressure'>
*
*       <SerialNum>5231569</SerialNum>
*
*       <CalDate>20-Mar-24</CalDate>
*
*       <PA0>-1.101950e+00</PA0>
*
*       <PA1>2.970557e-02</PA1>
*
*       <PA2>2.110482e-09</PA2>
*
*       <PTCA0>5.228239e+05</PTCA0>
*
*       <PTCA1>-6.455830e+00</PTCA1>
*
*       <PTCA2>1.999564e-01</PTCA2>
*
*       <PTCB0>1.036164e+02</PTCB0>
*
*       <PTCB1>-8.637616e-03</PTCB1>
*
*       <PTCB2>0.000000e+00</PTCB2>
*
*       <PTEMPA0>-9.540814e+01</PTEMPA0>
*
*       <PTEMPA1>3.856376e-02</PTEMPA1>
*
*       <PTEMPA2>1.703744e-06</PTEMPA2>
*
*       <POFFSET>0.000000e+00</POFFSET>
*
*       <PRANGE>1.015300e+04</PRANGE>
*
*    </Calibration>
*
* </CalibrationCoefficients>
* <EventCounters DeviceType='SBE37SM-RS232' SerialNumber='03716363'>
*
*    <EventSummary numEvents='3'/>
*
*    <Event type='PON reset' count='2'/>
*
*    <Event type='alarm long' count='1'/>
*
* </EventCounters></InstrumentState>
# nquan = 5
# nvalues = 1479                                  
# units = specified
# name 0 = tv290C: Temperature [ITS-90, deg C]
# name 1 = cond0S/m: Conductivity [S/m]
# name 2 = prdM: Pressure, Strain Gauge [db]
# name 3 = timeK: Time, Instrument [seconds]
# name 4 = flag:  0.000e+00
# span 0 =     2.8062,    16.1839                 
# span 1 =   0.000780,   4.099440                 
# span 2 =      0.593,   2415.472                 
# span 3 =  800511301,  800526081                 
# span 4 = 0.0000e+00, 0.0000e+00                 
# interval = seconds: 10
# start_time = May 14 2025 04:15:01 [Instrument's time stamp, first data scan]
# bad_flag = -9.990e-29
# <Sensors count="3" >
#   <sensor Channel="1" >
#     <!-- Count, Temperature -->
#     <TemperatureSensor SensorID="58" >
#       <SerialNumber>16363</SerialNumber>
#       <CalibrationDate>11-Apr-24</CalibrationDate>
#       <A0>-8.67378700e-005</A0>
#       <A1>2.95666100e-004</A1>
#       <A2>-3.35598800e-006</A2>
#       <A3>1.72361100e-007</A3>
#       <Slope>1.00000000</Slope>
#       <Offset>0.0000</Offset>
#     </TemperatureSensor>
#   </sensor>
#   <sensor Channel="2" >
#     <!-- Frequency 0, Conductivity -->
#     <ConductivitySensor SensorID="3" >
#       <SerialNumber>16363</SerialNumber>
#       <CalibrationDate>11-Apr-24</CalibrationDate>
#       <UseG_J>1</UseG_J>
#       <!-- Cell const and series R are applicable only for wide range sensors. -->
#       <SeriesR>0.0000</SeriesR>
#       <CellConst>2000.0000</CellConst>
#       <ConductivityType>1</ConductivityType>
#       <Coefficients equation="0" >
#         <A>0.00000000e+000</A>
#         <B>0.00000000e+000</B>
#         <C>0.00000000e+000</C>
#         <D>0.00000000e+000</D>
#         <M>0.0</M>
#         <CPcor>-9.57000000e-008</CPcor>
#       </Coefficients>
#       <Coefficients equation="1" >
#         <G>-9.76970300e-001</G>
#         <H>1.25676000e-001</H>
#         <I>-1.18189600e-005</I>
#         <J>1.67805600e-005</J>
#         <CPcor>-9.57000000e-008</CPcor>
#         <CTcor>3.2500e-006</CTcor>
#         <!-- WBOTC not applicable unless ConductivityType = 1. -->
#         <WBOTC>1.49491000e-007</WBOTC>
#       </Coefficients>
#       <Slope>1.00000000</Slope>
#       <Offset>0.00000</Offset>
#     </ConductivitySensor>
#   </sensor>
#   <sensor Channel="3" >
#     <!-- Count, Pressure, Strain Gauge -->
#     <PressureSensor SensorID="46" >
#       <SerialNumber>5231569</SerialNumber>
#       <CalibrationDate>20-Mar-24</CalibrationDate>
#       <PA0>-1.10195000e+000</PA0>
#       <PA1>2.97055700e-002</PA1>
#       <PA2>2.11048200e-009</PA2>
#       <PTEMPA0>-9.54081400e+001</PTEMPA0>
#       <PTEMPA1>3.85637600e-002</PTEMPA1>
#       <PTEMPA2>1.70374400e-006</PTEMPA2>
#       <PTCA0>5.22823900e+005</PTCA0>
#       <PTCA1>-6.45583000e+000</PTCA1>
#       <PTCA2>1.99956400e-001</PTCA2>
#       <PTCB0>1.03616400e+002</PTCB0>
#       <PTCB1>-8.63761600e-003</PTCB1>
#       <PTCB2>0.00000000e+000</PTCB2>
#       <Offset>0.000000</Offset>
#     </PressureSensor>
#   </sensor>
# </Sensors>
# datcnv_date = May 19 2025 08:07:08, 7.26.7.129 [datcnv_vars = 4]
# datcnv_in = C:\CE25007_recovery_data\16363_cal_dip_data.hex C:\CE25007_recovery_data\16363_cal_dip_data.xmlcon
# datcnv_skipover = 0
# file_type = ascii
*END*
    16.1720   0.001855      0.672  800511301  0.000e+00
    16.1789   0.001853      0.652  800511311  0.000e+00
    16.1812   0.001850      0.652  800511321  0.000e+00
    16.1839   0.001850      0.631  800511331  0.000e+00
    16.1804   0.001844      0.693  800511341  0.000e+00
    16.1648   0.001839      0.673  800511351  0.000e+00
    16.1458   0.001839      0.673  800511361  0.000e+00
    16.1228   0.001836      0.632  800511371  0.000e+00
    16.1020   0.001833      0.734  800511381  0.000e+00
    16.0864   0.001831      0.673  800511391  0.000e+00
    16.0732   0.001828      0.652  800511401  0.000e+00
    16.0826   0.001828      0.693  800511411  0.000e+00
    16.0799   0.001822      0.653  800511421  0.000e+00
    16.0711   0.001822      0.652  800511431  0.000e+00
    16.0581   0.001822      0.653  800511441  0.000e+00
    16.0331   0.001817      0.673  800511451  0.000e+00
    16.0327   0.001814      0.612  800511461  0.000e+00
    16.0285   0.001811      0.673  800511471  0.000e+00
    16.0133   0.001809      0.653  800511481  0.000e+00
    16.0120   0.001806      0.694  800511491  0.000e+00
    16.0145   0.001803      0.694  800511501  0.000e+00
    16.0121   0.001800      0.694  800511511  0.000e+00
    16.0060   0.001800      0.674  800511521  0.000e+00
    15.9978   0.001800      0.674  800511531  0.000e+00
    15.9886   0.001800      0.674  800511541  0.000e+00
    15.9795   0.001795      0.654  800511551  0.000e+00
    15.9635   0.001798      0.654  800511561  0.000e+00
    15.9625   0.001792      0.695  800511571  0.000e+00
    15.9521   0.001792      0.674  800511581  0.000e+00
    15.9437   0.001792      0.634  800511591  0.000e+00
    15.9381   0.001789      0.675  800511601  0.000e+00
    15.9282   0.001787      0.613  800511611  0.000e+00
    15.9216   0.001784      0.654  800511621  0.000e+00
    15.9056   0.001787      0.634  800511631  0.000e+00
    15.9024   0.001781      0.613  800511641  0.000e+00
    15.8934   0.001781      0.675  800511651  0.000e+00
    15.8891   0.001781      0.675  800511661  0.000e+00
    15.8781   0.001778      0.634  800511671  0.000e+00
    15.8685   0.001776      0.655  800511681  0.000e+00
    15.8662   0.001776      0.614  800511691  0.000e+00
    15.8508   0.001776      0.675  800511701  0.000e+00
    15.8229   0.001773      0.696  800511711  0.000e+00
    15.8184   0.001773      0.614  800511721  0.000e+00
    15.8137   0.001767      0.634  800511731  0.000e+00
    15.7886   0.002478      0.634  800511741  0.000e+00
    15.7945   0.013619      0.676  800511751  0.000e+00
    15.7911   0.010420      0.593  800511761  0.000e+00
    15.7786   0.009285      0.635  800511771  0.000e+00
    15.7709   0.008668      0.655  800511781  0.000e+00
    15.7626   0.008231      0.635  800511791  0.000e+00
    15.7558   0.007928      0.676  800511801  0.000e+00
    15.7507   0.007680      0.614  800511811  0.000e+00
    15.7374   0.007493      0.614  800511821  0.000e+00
    15.7315   0.007309      0.635  800511831  0.000e+00
    15.7320   0.007133      0.635  800511841  0.000e+00
    15.7178   0.007003      0.676  800511851  0.000e+00
    15.7086   0.006893      0.635  800511861  0.000e+00
    15.6914   0.006816      0.635  800511871  0.000e+00
    15.6821   0.006737      0.676  800511881  0.000e+00
    15.6713   0.006662      0.676  800511891  0.000e+00
    15.6602   0.006605      0.717  800511901  0.000e+00
    15.6476   0.006566      0.676  800511911  0.000e+00
    15.6314   0.006514      0.656  800511921  0.000e+00
    15.6187   0.006475      0.676  800511931  0.000e+00
    15.6030   0.006429      0.676  800511941  0.000e+00
    15.5868   0.006387      0.676  800511951  0.000e+00
    15.5637   0.006346      0.676  800511961  0.000e+00
    15.5495   0.006299      0.676  800511971  0.000e+00
    15.5353   0.006258      0.676  800511981  0.000e+00
    15.5209   0.006220      0.676  800511991  0.000e+00
    15.5080   0.006170      0.656  800512001  0.000e+00
    15.4980   0.006140      0.656  800512011  0.000e+00
    15.4850   0.006107      0.676  800512021  0.000e+00
    15.4797   0.006063      0.717  800512031  0.000e+00
    15.4751   0.006024      0.656  800512041  0.000e+00
    15.4687   0.005991      0.677  800512051  0.000e+00
    15.4583   0.005953      0.697  800512061  0.000e+00
    15.4479   0.005923      0.717  800512071  0.000e+00
    15.4353   0.005892      0.697  800512081  0.000e+00
    15.4267   0.005862      0.677  800512091  0.000e+00
    15.4208   0.005835      0.677  800512101  0.000e+00
    15.4164   0.005810      0.697  800512111  0.000e+00
    15.4130   0.005782      0.718  800512121  0.000e+00
    15.4070   0.005760      0.718  800512131  0.000e+00
    15.3956   0.005733      0.677  800512141  0.000e+00
    15.3894   0.005708      0.718  800512151  0.000e+00
    15.3829   0.005689      0.718  800512161  0.000e+00
    15.3777   0.005670      0.697  800512171  0.000e+00
    15.3710   0.005656      0.697  800512181  0.000e+00
    15.3610   0.005637      0.718  800512191  0.000e+00
    15.3574   0.005628      0.697  800512201  0.000e+00
    15.3448   0.005606      0.677  800512211  0.000e+00
    15.3333   0.005590      0.718  800512221  0.000e+00
    15.3329   0.005571      0.718  800512231  0.000e+00
    15.3268   0.005554      0.697  800512241  0.000e+00
    15.3229   0.005546      0.738  800512251  0.000e+00
    15.3176   0.005524      0.718  800512261  0.000e+00
    15.3075   0.005530      0.656  800512271  0.000e+00
    15.3052   0.005519      0.718  800512281  0.000e+00
    15.3014   0.005510      0.677  800512291  0.000e+00
    15.3026   0.005497      0.697  800512301  0.000e+00
    15.2988   0.005488      0.697  800512311  0.000e+00
    15.2889   0.005494      0.718  800512321  0.000e+00
    15.2843   0.005488      0.718  800512331  0.000e+00
    15.2791   0.005475      0.759  800512341  0.000e+00
    15.2756   0.005469      0.697  800512351  0.000e+00
    15.2752   0.005461      0.677  800512361  0.000e+00
    15.2723   0.005458      0.718  800512371  0.000e+00
    15.2688   0.005450      0.697  800512381  0.000e+00
    15.2642   0.005439      0.697  800512391  0.000e+00
    15.2619   0.005433      0.677  800512401  0.000e+00
    15.2547   0.005433      0.677  800512411  0.000e+00
    15.2541   0.005422      0.697  800512421  0.000e+00
    15.2493   0.005417      0.677  800512431  0.000e+00
    15.2478   0.005420      0.697  800512441  0.000e+00
    15.2451   0.005403      0.738  800512451  0.000e+00
    15.2433   0.005395      0.677  800512461  0.000e+00
    15.2358   0.005389      0.697  800512471  0.000e+00
    15.2328   0.005378      0.656  800512481  0.000e+00
    15.2258   0.005381      0.677  800512491  0.000e+00
    15.2212   0.005373      0.697  800512501  0.000e+00
    15.2074   0.005370      0.677  800512511  0.000e+00
    15.1974   0.005365      0.676  800512521  0.000e+00
    15.1804   0.005359      0.676  800512531  0.000e+00
    15.1676   0.005359      0.676  800512541  0.000e+00
    15.1496   0.005351      0.697  800512551  0.000e+00
    15.1460   0.005356      0.676  800512561  0.000e+00
    15.1462   0.005365      0.697  800512571  0.000e+00
    15.1020   0.005373      0.697  800512581  0.000e+00
    15.0722   0.005389      0.717  800512591  0.000e+00
    15.0182   0.005409      0.697  800512601  0.000e+00
    12.4222   0.933208      1.661  800512611  0.000e+00
    12.3599   3.483776      1.353  800512621  0.000e+00
    12.3578   4.099440      3.117  800512631  0.000e+00
    12.3513   4.088754      6.563  800512641  0.000e+00
    12.3530   4.085321      9.598  800512651  0.000e+00
    12.3736   4.086200     11.054  800512661  0.000e+00
    12.3437   4.080602     11.033  800512671  0.000e+00
    12.3426   4.079384      8.900  800512681  0.000e+00
    12.3458   4.078994      5.023  800512691  0.000e+00
    12.3433   4.078189      1.433  800512701  0.000e+00
    12.3430   4.077757      1.678  800512711  0.000e+00
    12.3454   4.077888      1.226  800512721  0.000e+00
    12.3422   4.077456      3.050  800512731  0.000e+00
    12.3443   4.077602      7.766  800512741  0.000e+00
    12.3461   4.077886     12.318  800512751  0.000e+00
    12.3275   4.076678     17.035  800512761  0.000e+00
    12.2011   4.065310     21.915  800512771  0.000e+00
    12.0541   4.051666     26.754  800512781  0.000e+00
    11.9190   4.038409     32.783  800512791  0.000e+00
    11.5276   4.003620     39.839  800512801  0.000e+00
    11.3579   3.988035     46.505  800512811  0.000e+00
    11.3335   3.986005     53.128  800512821  0.000e+00
    11.3346   3.985405     60.183  800512831  0.000e+00
    11.3255   3.985215     67.259  800512841  0.000e+00
    11.3311   3.985821     74.376  800512851  0.000e+00
    11.2946   3.982519     81.596  800512861  0.000e+00
    11.2979   3.983280     89.864  800512871  0.000e+00
    11.3122   3.985476     98.458  800512881  0.000e+00
    11.2798   3.982024    105.165  800512891  0.000e+00
    11.1575   3.969878    111.383  800512901  0.000e+00
    11.1339   3.967513    121.989  800512911  0.000e+00
    11.1334   3.962221    132.946  800512921  0.000e+00
    11.1247   3.964768    143.658  800512931  0.000e+00
    11.0587   3.961523    153.446  800512941  0.000e+00
    11.0221   3.958174    162.723  800512951  0.000e+00
    10.9798   3.954231    172.161  800512961  0.000e+00
    10.9523   3.951553    181.849  800512971  0.000e+00
    10.8655   3.943232    192.359  800512981  0.000e+00
    10.8320   3.940440    202.498  800512991  0.000e+00
    10.8094   3.938583    212.353  800513001  0.000e+00
    10.7674   3.934988    222.287  800513011  0.000e+00
    10.7522   3.933985    233.147  800513021  0.000e+00
    10.6979   3.928699    243.128  800513031  0.000e+00
    10.6250   3.921515    253.273  800513041  0.000e+00
    10.4972   3.904440    263.474  800513051  0.000e+00
    10.3033   3.846764    273.537  800513061  0.000e+00
    10.2059   3.845213    283.706  800513071  0.000e+00
    10.2324   3.880683    293.563  800513081  0.000e+00
    10.1042   3.868248    303.892  800513091  0.000e+00
     9.9784   3.839710    313.896  800513101  0.000e+00
    10.0992   3.867899    324.106  800513111  0.000e+00
    10.2127   3.881928    334.067  800513121  0.000e+00
    10.2165   3.883869    344.548  800513131  0.000e+00
    10.2187   3.885404    354.901  800513141  0.000e+00
    10.1342   3.877158    364.884  800513151  0.000e+00
    10.0124   3.865040    374.809  800513161  0.000e+00
     9.9791   3.861884    385.084  800513171  0.000e+00
     9.9584   3.860213    395.278  800513181  0.000e+00
     9.9097   3.855710    405.469  800513191  0.000e+00
     9.8881   3.854021    415.149  800513201  0.000e+00
     9.8037   3.846635    424.851  800513211  0.000e+00
     9.7413   3.841459    434.879  800513221  0.000e+00
     9.6888   3.836266    444.977  800513231  0.000e+00
     9.6497   3.832588    455.273  800513241  0.000e+00
     9.6209   3.829858    465.269  800513251  0.000e+00
     9.6072   3.828682    475.360  800513261  0.000e+00
     9.5539   3.823802    485.518  800513271  0.000e+00
     9.4891   3.818064    495.615  800513281  0.000e+00
     9.4583   3.815033    505.716  800513291  0.000e+00
     9.3552   3.805506    515.666  800513301  0.000e+00
     9.2263   3.793114    525.822  800513311  0.000e+00
     9.1531   3.785781    536.008  800513321  0.000e+00
     9.0465   3.775274    546.021  800513331  0.000e+00
     8.9483   3.766116    556.389  800513341  0.000e+00
     8.8372   3.754582    566.572  800513351  0.000e+00
     8.8136   3.752323    576.324  800513361  0.000e+00
     8.6967   3.742217    586.385  800513371  0.000e+00
     8.5765   3.731276    596.776  800513381  0.000e+00
     8.5258   3.727015    606.344  800513391  0.000e+00
     8.4843   3.723318    616.237  800513401  0.000e+00
     8.3950   3.715508    626.387  800513411  0.000e+00
     8.3220   3.709190    636.570  800513421  0.000e+00
     8.2115   3.698812    646.326  800513431  0.000e+00
     8.1836   3.695680    656.303  800513441  0.000e+00
     8.1066   3.689219    666.451  800513451  0.000e+00
     8.0165   3.680891    676.481  800513461  0.000e+00
     7.8916   3.668711    686.641  800513471  0.000e+00
     7.6299   3.641843    696.482  800513481  0.000e+00
     7.4475   3.623494    706.133  800513491  0.000e+00
     7.4271   3.620741    716.572  800513501  0.000e+00
     7.2989   3.608038    726.703  800513511  0.000e+00
     7.2015   3.599712    736.623  800513521  0.000e+00
     7.1316   3.592716    746.461  800513531  0.000e+00
     7.0253   3.583553    756.964  800513541  0.000e+00
     6.9973   3.581032    767.277  800513551  0.000e+00
     6.9413   3.575717    777.596  800513561  0.000e+00
     6.8817   3.570101    787.704  800513571  0.000e+00
     6.7516   3.558716    798.266  800513581  0.000e+00
     6.7978   3.563328    808.293  800513591  0.000e+00
     6.7587   3.560451    818.579  800513601  0.000e+00
     6.7117   3.556661    828.642  800513611  0.000e+00
     6.5761   3.544350    839.295  800513621  0.000e+00
     6.4584   3.533045    849.364  800513631  0.000e+00
     6.4388   3.530787    859.084  800513641  0.000e+00
     6.3742   3.525105    869.244  800513651  0.000e+00
     6.3336   3.521377    879.088  800513661  0.000e+00
     6.2610   3.514684    889.001  800513671  0.000e+00
     6.1766   3.506822    898.847  800513681  0.000e+00
     6.0607   3.496172    908.445  800513691  0.000e+00
     6.0083   3.491041    918.566  800513701  0.000e+00
     5.9643   3.486856    928.330  800513711  0.000e+00
     5.8948   3.480672    938.267  800513721  0.000e+00
     5.8621   3.477375    948.087  800513731  0.000e+00
     5.8118   3.472967    958.004  800513741  0.000e+00
     5.7561   3.467609    967.942  800513751  0.000e+00
     5.7058   3.462960    977.605  800513761  0.000e+00
     5.6452   3.457602    987.483  800513771  0.000e+00
     5.5829   3.451462    997.402  800513781  0.000e+00
     5.5198   3.445930   1007.170  800513791  0.000e+00
     5.4223   3.436893   1017.351  800513801  0.000e+00
     5.3587   3.430955   1027.334  800513811  0.000e+00
     5.2926   3.424787   1037.276  800513821  0.000e+00
     5.2546   3.420844   1047.128  800513831  0.000e+00
     5.2270   3.418655   1057.051  800513841  0.000e+00
     5.1527   3.412000   1067.462  800513851  0.000e+00
     5.0854   3.405944   1077.357  800513861  0.000e+00
     5.0245   3.400470   1087.178  800513871  0.000e+00
     4.9586   3.394160   1097.309  800513881  0.000e+00
     4.9402   3.392457   1107.970  800513891  0.000e+00
     4.9089   3.389693   1118.226  800513901  0.000e+00
     4.8504   3.384992   1128.483  800513911  0.000e+00
     4.7306   3.373338   1138.588  800513921  0.000e+00
     4.6692   3.366723   1148.846  800513931  0.000e+00
     4.6576   3.366483   1159.593  800513941  0.000e+00
     4.6218   3.362595   1169.893  800513951  0.000e+00
     4.6100   3.361617   1179.905  800513961  0.000e+00
     4.5779   3.359386   1190.116  800513971  0.000e+00
     4.5878   3.360295   1200.418  800513981  0.000e+00
     4.5883   3.360873   1210.444  800513991  0.000e+00
     4.5707   3.359796   1220.314  800514001  0.000e+00
     4.5229   3.355819   1230.639  800514011  0.000e+00
     4.4779   3.351705   1240.890  800514021  0.000e+00
     4.4537   3.349690   1250.732  800514031  0.000e+00
     4.4983   3.354176   1260.894  800514041  0.000e+00
     4.4389   3.349343   1271.191  800514051  0.000e+00
     4.4157   3.347156   1281.313  800514061  0.000e+00
     4.4195   3.347988   1291.207  800514071  0.000e+00
     4.4041   3.347023   1301.267  800514081  0.000e+00
     4.3914   3.346198   1311.432  800514091  0.000e+00
     4.3692   3.344579   1321.339  800514101  0.000e+00
     4.3017   3.338657   1331.380  800514111  0.000e+00
     4.1894   3.328396   1341.774  800514121  0.000e+00
     4.1462   3.324398   1351.557  800514131  0.000e+00
     4.1371   3.323575   1361.373  800514141  0.000e+00
     4.1883   3.328868   1371.883  800514151  0.000e+00
     4.1856   3.329068   1381.709  800514161  0.000e+00
     4.1654   3.327897   1391.476  800514171  0.000e+00
     4.1514   3.326935   1401.489  800514181  0.000e+00
     4.1203   3.324268   1411.671  800514191  0.000e+00
     4.0642   3.319463   1421.831  800514201  0.000e+00
     4.0539   3.318548   1431.981  800514211  0.000e+00
     4.0450   3.318055   1441.843  800514221  0.000e+00
     4.0356   3.317509   1451.747  800514231  0.000e+00
     4.0218   3.316560   1461.961  800514241  0.000e+00
     4.0279   3.317654   1471.793  800514251  0.000e+00
     4.0175   3.317063   1481.657  800514261  0.000e+00
     3.9835   3.314433   1491.481  800514271  0.000e+00
     3.9602   3.312450   1501.501  800514281  0.000e+00
     3.9502   3.311899   1511.284  800514291  0.000e+00
     3.9400   3.311366   1521.233  800514301  0.000e+00
     3.9307   3.310752   1531.255  800514311  0.000e+00
     3.9218   3.310299   1541.475  800514321  0.000e+00
     3.9143   3.309962   1551.405  800514331  0.000e+00
     3.9046   3.309411   1561.098  800514341  0.000e+00
     3.8884   3.308405   1571.257  800514351  0.000e+00
     3.8778   3.307912   1581.511  800514361  0.000e+00
     3.8538   3.306121   1591.764  800514371  0.000e+00
     3.8397   3.305104   1602.122  800514381  0.000e+00
     3.8343   3.304980   1612.471  800514391  0.000e+00
     3.8259   3.304603   1622.748  800514401  0.000e+00
     3.8063   3.303303   1633.408  800514411  0.000e+00
     3.7970   3.302782   1643.717  800514421  0.000e+00
     3.7831   3.301949   1654.182  800514431  0.000e+00
     3.7838   3.302408   1664.524  800514441  0.000e+00
     3.7763   3.302129   1674.586  800514451  0.000e+00
     3.7579   3.301025   1685.291  800514461  0.000e+00
     3.7574   3.301340   1695.781  800514471  0.000e+00
     3.7523   3.301384   1705.990  800514481  0.000e+00
     3.7241   3.299283   1716.563  800514491  0.000e+00
     3.7103   3.298416   1726.868  800514501  0.000e+00
     3.7097   3.298725   1737.360  800514511  0.000e+00
     3.7103   3.299161   1747.364  800514521  0.000e+00
     3.7059   3.299325   1757.639  800514531  0.000e+00
     3.7078   3.300078   1767.842  800514541  0.000e+00
     3.7008   3.299989   1778.005  800514551  0.000e+00
     3.6883   3.299445   1787.888  800514561  0.000e+00
     3.6857   3.299557   1797.865  800514571  0.000e+00
     3.6803   3.299526   1807.707  800514581  0.000e+00
     3.6764   3.299604   1818.080  800514591  0.000e+00
     3.6705   3.299486   1827.832  800514601  0.000e+00
     3.6660   3.299553   1837.572  800514611  0.000e+00
     3.6638   3.299706   1847.885  800514621  0.000e+00
     3.6513   3.299196   1858.207  800514631  0.000e+00
     3.6382   3.298306   1867.857  800514641  0.000e+00
     3.6327   3.298275   1877.725  800514651  0.000e+00
     3.6235   3.298099   1887.969  800514661  0.000e+00
     3.6053   3.297048   1898.253  800514671  0.000e+00
     3.5793   3.295260   1908.258  800514681  0.000e+00
     3.5631   3.294163   1918.244  800514691  0.000e+00
     3.5594   3.294063   1928.301  800514701  0.000e+00
     3.5381   3.292620   1937.831  800514711  0.000e+00
     3.5275   3.292071   1948.180  800514721  0.000e+00
     3.5133   3.291205   1958.625  800514731  0.000e+00
     3.5099   3.291208   1968.780  800514741  0.000e+00
     3.5037   3.291136   1978.603  800514751  0.000e+00
     3.4719   3.288877   1988.934  800514761  0.000e+00
     3.4637   3.288437   1999.465  800514771  0.000e+00
     3.4430   3.287140   2009.935  800514781  0.000e+00
     3.4330   3.286596   2019.769  800514791  0.000e+00
     3.4275   3.286513   2029.754  800514801  0.000e+00
     3.4148   3.285751   2040.129  800514811  0.000e+00
     3.3986   3.284874   2050.186  800514821  0.000e+00
     3.3929   3.284659   2060.272  800514831  0.000e+00
     3.3878   3.284622   2070.309  800514841  0.000e+00
     3.3767   3.284073   2080.209  800514851  0.000e+00
     3.3530   3.282517   2090.227  800514861  0.000e+00
     3.3299   3.280945   2100.640  800514871  0.000e+00
     3.3068   3.279430   2110.722  800514881  0.000e+00
     3.2873   3.278162   2120.471  800514891  0.000e+00
     3.2629   3.276436   2130.666  800514901  0.000e+00
     3.2450   3.275192   2140.812  800514911  0.000e+00
     3.2119   3.272874   2150.737  800514921  0.000e+00
     3.1961   3.271780   2161.092  800514931  0.000e+00
     3.1718   3.270111   2171.074  800514941  0.000e+00
     3.1556   3.269052   2181.084  800514951  0.000e+00
     3.1283   3.267006   2191.108  800514961  0.000e+00
     3.1024   3.265155   2201.154  800514971  0.000e+00
     3.0737   3.263098   2211.291  800514981  0.000e+00
     3.0472   3.261184   2221.463  800514991  0.000e+00
     3.0370   3.260608   2231.449  800515001  0.000e+00
     3.0138   3.258885   2241.505  800515011  0.000e+00
     2.9863   3.256927   2251.533  800515021  0.000e+00
     2.9662   3.255732   2261.507  800515031  0.000e+00
     2.9404   3.253602   2271.869  800515041  0.000e+00
     2.9173   3.251989   2281.983  800515051  0.000e+00
     2.9050   3.251121   2291.972  800515061  0.000e+00
     2.8937   3.250466   2301.983  800515071  0.000e+00
     2.8808   3.249655   2311.939  800515081  0.000e+00
     2.8802   3.249887   2321.702  800515091  0.000e+00
     2.8802   3.250212   2331.888  800515101  0.000e+00
     2.8724   3.249755   2338.300  800515111  0.000e+00
     2.8693   3.249510   2342.658  800515121  0.000e+00
     2.8648   3.249444   2350.361  800515131  0.000e+00
     2.8541   3.248851   2358.564  800515141  0.000e+00
     2.8467   3.248544   2366.941  800515151  0.000e+00
     2.8448   3.248598   2375.021  800515161  0.000e+00
     2.8436   3.248784   2382.996  800515171  0.000e+00
     2.8404   3.248764   2391.410  800515181  0.000e+00
     2.8386   3.248765   2395.429  800515191  0.000e+00
     2.8330   3.248434   2400.205  800515201  0.000e+00
     2.8243   3.247851   2405.064  800515211  0.000e+00
     2.8130   3.247074   2410.048  800515221  0.000e+00
     2.8105   3.246972   2414.187  800515231  0.000e+00
     2.8106   3.246886   2414.276  800515241  0.000e+00
     2.8091   3.246663   2413.797  800515251  0.000e+00
     2.8069   3.246474   2413.908  800515261  0.000e+00
     2.8069   3.246434   2413.866  800515271  0.000e+00
     2.8067   3.246388   2413.872  800515281  0.000e+00
     2.8066   3.246417   2414.741  800515291  0.000e+00
     2.8071   3.246428   2414.560  800515301  0.000e+00
     2.8074   3.246417   2413.622  800515311  0.000e+00
     2.8078   3.246457   2413.810  800515321  0.000e+00
     2.8074   3.246457   2414.601  800515331  0.000e+00
     2.8077   3.246474   2414.580  800515341  0.000e+00
     2.8084   3.246537   2414.518  800515351  0.000e+00
     2.8087   3.246520   2414.004  800515361  0.000e+00
     2.8085   3.246531   2414.274  800515371  0.000e+00
     2.8088   3.246548   2414.322  800515381  0.000e+00
     2.8092   3.246589   2414.420  800515391  0.000e+00
     2.8089   3.246589   2414.628  800515401  0.000e+00
     2.8090   3.246577   2414.420  800515411  0.000e+00
     2.8091   3.246589   2414.260  800515421  0.000e+00
     2.8093   3.246617   2414.385  800515431  0.000e+00
     2.8093   3.246612   2414.551  800515441  0.000e+00
     2.8083   3.246566   2414.787  800515451  0.000e+00
     2.8090   3.246577   2414.579  800515461  0.000e+00
     2.8087   3.246583   2414.489  800515471  0.000e+00
     2.8091   3.246606   2414.162  800515481  0.000e+00
     2.8093   3.246629   2414.620  800515491  0.000e+00
     2.8097   3.246634   2414.599  800515501  0.000e+00
     2.8090   3.246606   2414.433  800515511  0.000e+00
     2.8091   3.246589   2414.329  800515521  0.000e+00
     2.8087   3.246554   2414.204  800515531  0.000e+00
     2.8087   3.246572   2414.933  800515541  0.000e+00
     2.8085   3.246554   2414.933  800515551  0.000e+00
     2.8082   3.246520   2414.585  800515561  0.000e+00
     2.8086   3.246526   2414.127  800515571  0.000e+00
     2.8085   3.246554   2414.856  800515581  0.000e+00
     2.8084   3.246560   2414.710  800515591  0.000e+00
     2.8084   3.246526   2414.231  800515601  0.000e+00
     2.8082   3.246560   2414.856  800515611  0.000e+00
     2.8086   3.246566   2414.612  800515621  0.000e+00
     2.8082   3.246503   2414.272  800515631  0.000e+00
     2.8081   3.246497   2414.377  800515641  0.000e+00
     2.8081   3.246520   2415.126  800515651  0.000e+00
     2.8085   3.246543   2415.153  800515661  0.000e+00
     2.8088   3.246549   2414.424  800515671  0.000e+00
     2.8088   3.246566   2414.549  800515681  0.000e+00
     2.8083   3.246537   2414.591  800515691  0.000e+00
     2.8085   3.246549   2414.987  800515701  0.000e+00
     2.8084   3.246508   2414.487  800515711  0.000e+00
     2.8080   3.246509   2415.049  800515721  0.000e+00
     2.8082   3.246514   2414.612  800515731  0.000e+00
     2.8086   3.246543   2414.508  800515741  0.000e+00
     2.8086   3.246554   2414.778  800515751  0.000e+00
     2.8079   3.246520   2414.716  800515761  0.000e+00
     2.8085   3.246543   2414.424  800515771  0.000e+00
     2.8083   3.246526   2414.383  800515781  0.000e+00
     2.8079   3.246526   2415.070  800515791  0.000e+00
     2.8081   3.246514   2414.785  800515801  0.000e+00
     2.8081   3.246514   2414.847  800515811  0.000e+00
     2.8080   3.246514   2415.180  800515821  0.000e+00
     2.8066   3.246411   2414.931  800515831  0.000e+00
     2.8065   3.246360   2414.639  800515841  0.000e+00
     2.8067   3.246394   2415.049  800515851  0.000e+00
     2.8062   3.246360   2414.910  800515861  0.000e+00
     2.8074   3.246434   2415.070  800515871  0.000e+00
     2.8078   3.246480   2414.972  800515881  0.000e+00
     2.8083   3.246491   2414.529  800515891  0.000e+00
     2.8084   3.246531   2414.654  800515901  0.000e+00
     2.8072   3.246509   2415.472  800515911  0.000e+00
     2.8078   3.246497   2415.118  800515921  0.000e+00
     2.8079   3.246468   2414.347  800515931  0.000e+00
     2.8078   3.246486   2414.660  800515941  0.000e+00
     2.8078   3.246503   2415.299  800515951  0.000e+00
     2.8078   3.246503   2415.014  800515961  0.000e+00
     2.8081   3.246520   2415.091  800515971  0.000e+00
     2.8081   3.246509   2414.722  800515981  0.000e+00
     2.8080   3.246514   2414.743  800515991  0.000e+00
     2.8081   3.246526   2415.035  800516001  0.000e+00
     2.8079   3.246514   2414.701  800516011  0.000e+00
     2.8085   3.246543   2414.785  800516021  0.000e+00
     2.8083   3.246537   2415.139  800516031  0.000e+00
     2.8089   3.246560   2414.597  800516041  0.000e+00
     2.8087   3.246583   2415.291  800516051  0.000e+00
     2.8088   3.246589   2414.895  800516061  0.000e+00
     2.8085   3.246566   2415.035  800516071  0.000e+00
     2.8087   3.246572   2415.097  800516081  0.000e+00
     2.8090   3.246577   2414.576  800516091  0.000e+00
     2.8086   3.246566   2415.035  800516101  0.000e+00
     2.8091   3.246600   2415.326  800516111  0.000e+00
     2.8095   3.246606   2414.535  800516121  0.000e+00
     2.8091   3.246612   2415.055  800516131  0.000e+00
     2.8094   3.246617   2414.458  800516141  0.000e+00
     2.8091   3.246629   2415.410  800516151  0.000e+00
     2.8091   3.246629   2414.993  800516161  0.000e+00
     2.8094   3.246640   2415.083  800516171  0.000e+00
     2.8093   3.246617   2414.728  800516181  0.000e+00
     2.8096   3.246583   2413.520  800516191  0.000e+00
     2.8103   3.246363   2406.287  800516201  0.000e+00
     2.8308   3.247718   2398.879  800516211  0.000e+00
     2.8412   3.248380   2391.105  800516221  0.000e+00
     2.8419   3.248211   2383.338  800516231  0.000e+00
     2.8435   3.248077   2375.883  800516241  0.000e+00
     2.8451   3.247920   2368.158  800516251  0.000e+00
     2.8447   3.247631   2360.398  800516261  0.000e+00
     2.8442   3.247579   2358.914  800516271  0.000e+00
     2.8448   3.247602   2358.733  800516281  0.000e+00
     2.8453   3.247700   2359.372  800516291  0.000e+00
     2.8458   3.247768   2359.205  800516301  0.000e+00
     2.8454   3.247757   2359.232  800516311  0.000e+00
     2.8454   3.247745   2359.476  800516321  0.000e+00
     2.8453   3.247745   2359.170  800516331  0.000e+00
     2.8452   3.247763   2359.330  800516341  0.000e+00
     2.8451   3.247768   2359.621  800516351  0.000e+00
     2.8453   3.247774   2359.336  800516361  0.000e+00
     2.8452   3.247768   2358.934  800516371  0.000e+00
     2.8456   3.247733   2357.394  800516381  0.000e+00
     2.8481   3.247599   2350.217  800516391  0.000e+00
     2.8550   3.247843   2342.619  800516401  0.000e+00
     2.8605   3.248036   2335.118  800516411  0.000e+00
     2.8553   3.247646   2335.139  800516421  0.000e+00
     2.8575   3.247742   2331.912  800516431  0.000e+00
     2.8669   3.248170   2324.106  800516441  0.000e+00
     2.8699   3.248173   2316.717  800516451  0.000e+00
     2.8745   3.248268   2308.641  800516461  0.000e+00
     2.8740   3.247962   2300.656  800516471  0.000e+00
     2.8964   3.249426   2293.011  800516481  0.000e+00
     2.8987   3.249412   2285.228  800516491  0.000e+00
     2.9066   3.249816   2277.404  800516501  0.000e+00
     2.9291   3.251229   2269.046  800516511  0.000e+00
     2.9497   3.252756   2261.590  800516521  0.000e+00
     2.9745   3.254548   2253.746  800516531  0.000e+00
     2.9957   3.256185   2245.570  800516541  0.000e+00
     3.0038   3.256705   2238.122  800516551  0.000e+00
     3.0208   3.257791   2230.071  800516561  0.000e+00
     3.0280   3.258311   2222.395  800516571  0.000e+00
     3.0396   3.259025   2214.325  800516581  0.000e+00
     3.0774   3.261725   2206.442  800516591  0.000e+00
     3.0929   3.262916   2198.705  800516601  0.000e+00
     3.1106   3.264210   2191.239  800516611  0.000e+00
     3.1200   3.264747   2183.731  800516621  0.000e+00
     3.1405   3.266289   2176.986  800516631  0.000e+00
     3.1442   3.266488   2169.833  800516641  0.000e+00
     3.1502   3.266761   2162.784  800516651  0.000e+00
     3.1631   3.267557   2155.611  800516661  0.000e+00
     3.1822   3.268864   2147.952  800516671  0.000e+00
     3.1951   3.269705   2140.475  800516681  0.000e+00
     3.2239   3.271794   2133.004  800516691  0.000e+00
     3.2271   3.272143   2129.608  800516701  0.000e+00
     3.2277   3.272350   2130.281  800516711  0.000e+00
     3.2306   3.272626   2130.073  800516721  0.000e+00
     3.2309   3.272723   2129.948  800516731  0.000e+00
     3.2310   3.272786   2129.928  800516741  0.000e+00
     3.2310   3.272809   2129.824  800516751  0.000e+00
     3.2315   3.272878   2130.253  800516761  0.000e+00
     3.2308   3.272879   2130.461  800516771  0.000e+00
     3.2312   3.272884   2129.622  800516781  0.000e+00
     3.2314   3.272907   2130.225  800516791  0.000e+00
     3.2310   3.272901   2130.329  800516801  0.000e+00
     3.2308   3.272878   2130.253  800516811  0.000e+00
     3.2304   3.272844   2129.934  800516821  0.000e+00
     3.2329   3.272918   2128.042  800516831  0.000e+00
     3.2542   3.274341   2120.780  800516841  0.000e+00
     3.2681   3.275160   2112.992  800516851  0.000e+00
     3.2747   3.275462   2105.010  800516861  0.000e+00
     3.2828   3.275856   2097.479  800516871  0.000e+00
     3.2974   3.276692   2089.498  800516881  0.000e+00
     3.3197   3.278190   2081.759  800516891  0.000e+00
     3.3419   3.279832   2073.953  800516901  0.000e+00
     3.3578   3.280934   2066.161  800516911  0.000e+00
     3.3626   3.281167   2058.805  800516921  0.000e+00
     3.3865   3.282798   2050.860  800516931  0.000e+00
     3.3923   3.283037   2042.736  800516941  0.000e+00
     3.3979   3.283328   2035.348  800516951  0.000e+00
     3.4108   3.284229   2029.003  800516961  0.000e+00
     3.4064   3.284125   2029.273  800516971  0.000e+00
     3.4056   3.283964   2028.650  800516981  0.000e+00
     3.4091   3.284280   2028.588  800516991  0.000e+00
     3.4098   3.284367   2029.037  800517001  0.000e+00
     3.4120   3.284597   2028.892  800517011  0.000e+00
     3.4133   3.284723   2028.518  800517021  0.000e+00
     3.4130   3.284729   2029.183  800517031  0.000e+00
     3.4134   3.284775   2028.975  800517041  0.000e+00
     3.4129   3.284735   2028.946  800517051  0.000e+00
     3.4124   3.284695   2029.099  800517061  0.000e+00
     3.4125   3.284700   2028.622  800517071  0.000e+00
     3.4128   3.284747   2028.988  800517081  0.000e+00
     3.4129   3.284775   2029.370  800517091  0.000e+00
     3.4131   3.284775   2029.112  800517101  0.000e+00
     3.4128   3.284770   2028.780  800517111  0.000e+00
     3.4135   3.284833   2029.403  800517121  0.000e+00
     3.4135   3.284793   2029.021  800517131  0.000e+00
     3.4135   3.284787   2028.897  800517141  0.000e+00
     3.4132   3.284781   2028.967  800517151  0.000e+00
     3.4129   3.284804   2029.450  800517161  0.000e+00
     3.4128   3.284781   2029.229  800517171  0.000e+00
     3.4128   3.284758   2028.959  800517181  0.000e+00
     3.4128   3.284758   2029.221  800517191  0.000e+00
     3.4120   3.284678   2028.918  800517201  0.000e+00
     3.4113   3.284632   2029.125  800517211  0.000e+00
     3.4108   3.284609   2029.325  800517221  0.000e+00
     3.4107   3.284580   2029.138  800517231  0.000e+00
     3.4106   3.284562   2028.910  800517241  0.000e+00
     3.4108   3.284568   2028.993  800517251  0.000e+00
     3.4109   3.284586   2029.367  800517261  0.000e+00
     3.4111   3.284591   2028.993  800517271  0.000e+00
     3.4113   3.284614   2029.097  800517281  0.000e+00
     3.4107   3.284574   2028.943  800517291  0.000e+00
     3.4076   3.284304   2028.951  800517301  0.000e+00
     3.4052   3.284125   2029.263  800517311  0.000e+00
     3.4054   3.284154   2029.554  800517321  0.000e+00
     3.4064   3.284183   2028.993  800517331  0.000e+00
     3.4095   3.284424   2029.117  800517341  0.000e+00
     3.4095   3.284424   2028.931  800517351  0.000e+00
     3.4108   3.284551   2029.255  800517361  0.000e+00
     3.4100   3.284517   2029.691  800517371  0.000e+00
     3.4081   3.284338   2029.276  800517381  0.000e+00
     3.4107   3.284534   2029.027  800517391  0.000e+00
     3.4111   3.284591   2029.338  800517401  0.000e+00
     3.4111   3.284614   2029.380  800517411  0.000e+00
     3.4147   3.284595   2022.490  800517421  0.000e+00
     3.4234   3.284938   2014.402  800517431  0.000e+00
     3.4378   3.285804   2006.757  800517441  0.000e+00
     3.4508   3.286578   1999.155  800517451  0.000e+00
     3.4541   3.286581   1990.992  800517461  0.000e+00
     3.4615   3.286890   1983.100  800517471  0.000e+00
     3.4715   3.287388   1975.146  800517481  0.000e+00
     3.4772   3.287621   1967.151  800517491  0.000e+00
     3.4883   3.288263   1959.343  800517501  0.000e+00
     3.4971   3.288698   1951.556  800517511  0.000e+00
     3.5150   3.289927   1943.541  800517521  0.000e+00
     3.5428   3.292003   1935.623  800517531  0.000e+00
     3.5714   3.294166   1927.679  800517541  0.000e+00
     3.5687   3.294050   1925.367  800517551  0.000e+00
     3.5649   3.293969   1925.686  800517561  0.000e+00
     3.5665   3.294096   1925.624  800517571  0.000e+00
     3.5713   3.294574   1925.769  800517581  0.000e+00
     3.5727   3.294712   1925.500  800517591  0.000e+00
     3.5741   3.294857   1925.865  800517601  0.000e+00
     3.5718   3.294782   1926.259  800517611  0.000e+00
     3.5723   3.294810   1925.471  800517621  0.000e+00
     3.5740   3.294926   1925.732  800517631  0.000e+00
     3.5753   3.295052   1926.031  800517641  0.000e+00
     3.5761   3.295098   1925.450  800517651  0.000e+00
     3.5766   3.295133   1925.296  800517661  0.000e+00
     3.5762   3.295121   1925.554  800517671  0.000e+00
     3.5771   3.295179   1925.005  800517681  0.000e+00
     3.5789   3.294998   1917.947  800517691  0.000e+00
     3.5822   3.294817   1909.581  800517701  0.000e+00
     3.5939   3.295454   1901.598  800517711  0.000e+00
     3.6286   3.297957   1893.515  800517721  0.000e+00
     3.6336   3.298220   1885.545  800517731  0.000e+00
     3.6370   3.298165   1877.451  800517741  0.000e+00
     3.6393   3.297892   1869.265  800517751  0.000e+00
     3.6476   3.298229   1860.973  800517761  0.000e+00
     3.6631   3.299212   1853.515  800517771  0.000e+00
     3.6719   3.299723   1846.448  800517781  0.000e+00
     3.6766   3.299830   1839.426  800517791  0.000e+00
     3.6809   3.299925   1832.111  800517801  0.000e+00
     3.6815   3.299791   1824.965  800517811  0.000e+00
     3.6800   3.299693   1824.923  800517821  0.000e+00
     3.6798   3.299773   1825.193  800517831  0.000e+00
     3.6810   3.299842   1824.695  800517841  0.000e+00
     3.6809   3.299883   1824.986  800517851  0.000e+00
     3.6816   3.299964   1825.235  800517861  0.000e+00
     3.6824   3.300033   1825.122  800517871  0.000e+00
     3.6832   3.300067   1824.666  800517881  0.000e+00
     3.6826   3.300079   1825.247  800517891  0.000e+00
     3.6828   3.300056   1824.811  800517901  0.000e+00
     3.6823   3.300044   1824.956  800517911  0.000e+00
     3.6822   3.300015   1824.728  800517921  0.000e+00
     3.6820   3.300021   1825.205  800517931  0.000e+00
     3.6818   3.299992   1824.749  800517941  0.000e+00
     3.6817   3.300004   1825.205  800517951  0.000e+00
     3.6820   3.300027   1825.309  800517961  0.000e+00
     3.6818   3.299992   1824.740  800517971  0.000e+00
     3.6817   3.300004   1825.113  800517981  0.000e+00
     3.6814   3.299987   1825.072  800517991  0.000e+00
     3.6814   3.299964   1824.906  800518001  0.000e+00
     3.6816   3.299969   1824.636  800518011  0.000e+00
     3.6816   3.300004   1825.508  800518021  0.000e+00
     3.6811   3.299946   1825.176  800518031  0.000e+00
     3.6808   3.299906   1824.698  800518041  0.000e+00
     3.6811   3.299935   1825.279  800518051  0.000e+00
     3.6811   3.299912   1824.897  800518061  0.000e+00
     3.6810   3.299894   1824.574  800518071  0.000e+00
     3.6807   3.299912   1825.300  800518081  0.000e+00
     3.6813   3.299964   1825.437  800518091  0.000e+00
     3.6811   3.299929   1824.989  800518101  0.000e+00
     3.6811   3.299917   1824.802  800518111  0.000e+00
     3.6811   3.299929   1824.710  800518121  0.000e+00
     3.6813   3.299946   1825.404  800518131  0.000e+00
     3.6809   3.299900   1824.773  800518141  0.000e+00
     3.6809   3.299889   1824.698  800518151  0.000e+00
     3.6808   3.299877   1824.657  800518161  0.000e+00
     3.6806   3.299883   1824.980  800518171  0.000e+00
     3.6807   3.299871   1824.710  800518181  0.000e+00
     3.6804   3.299889   1825.312  800518191  0.000e+00
     3.6804   3.299889   1825.291  800518201  0.000e+00
     3.6804   3.299866   1824.793  800518211  0.000e+00
     3.6803   3.299877   1825.134  800518221  0.000e+00
     3.6802   3.299866   1825.241  800518231  0.000e+00
     3.6805   3.299883   1825.291  800518241  0.000e+00
     3.6806   3.299854   1825.312  800518251  0.000e+00
     3.6802   3.299883   1825.146  800518261  0.000e+00
     3.6802   3.299848   1824.690  800518271  0.000e+00
     3.6800   3.299674   1821.258  800518281  0.000e+00
     3.6794   3.299286   1813.362  800518291  0.000e+00
     3.6800   3.298966   1805.272  800518301  0.000e+00
     3.6853   3.299010   1797.369  800518311  0.000e+00
     3.6833   3.298598   1790.130  800518321  0.000e+00
     3.6895   3.298699   1782.123  800518331  0.000e+00
     3.6900   3.298472   1774.201  800518341  0.000e+00
     3.7097   3.299743   1766.672  800518351  0.000e+00
     3.7150   3.299919   1758.896  800518361  0.000e+00
     3.7200   3.300009   1751.099  800518371  0.000e+00
     3.7236   3.300035   1743.210  800518381  0.000e+00
     3.7242   3.299768   1736.128  800518391  0.000e+00
     3.7305   3.299996   1728.539  800518401  0.000e+00
     3.7312   3.299902   1723.190  800518411  0.000e+00
     3.7296   3.299781   1723.190  800518421  0.000e+00
     3.7305   3.299891   1723.377  800518431  0.000e+00
     3.7321   3.300035   1722.775  800518441  0.000e+00
     3.7320   3.300075   1723.584  800518451  0.000e+00
     3.7321   3.300110   1723.459  800518461  0.000e+00
     3.7325   3.300121   1723.377  800518471  0.000e+00
     3.7326   3.300138   1723.264  800518481  0.000e+00
     3.7324   3.300127   1723.077  800518491  0.000e+00
     3.7321   3.300139   1723.595  800518501  0.000e+00
     3.7324   3.300144   1723.430  800518511  0.000e+00
     3.7326   3.300167   1723.243  800518521  0.000e+00
     3.7356   3.300177   1718.806  800518531  0.000e+00
     3.7131   3.297864   1710.721  800518541  0.000e+00
     3.7235   3.297971   1702.636  800518551  0.000e+00
     3.7279   3.298020   1694.676  800518561  0.000e+00
     3.7520   3.299775   1686.634  800518571  0.000e+00
     3.7587   3.300141   1678.624  800518581  0.000e+00
     3.7713   3.300940   1670.301  800518591  0.000e+00
     3.7760   3.301122   1662.518  800518601  0.000e+00
     3.7855   3.301557   1654.634  800518611  0.000e+00
     3.7887   3.301486   1646.469  800518621  0.000e+00
     3.8008   3.302238   1639.051  800518631  0.000e+00
     3.8102   3.302836   1631.903  800518641  0.000e+00
     3.8168   3.303075   1624.382  800518651  0.000e+00
     3.8244   3.303680   1621.087  800518661  0.000e+00
     3.8120   3.302786   1621.200  800518671  0.000e+00
     3.8159   3.303086   1620.995  800518681  0.000e+00
     3.8226   3.303674   1620.797  800518691  0.000e+00
     3.8242   3.303882   1621.264  800518701  0.000e+00
     3.8299   3.304372   1621.119  800518711  0.000e+00
     3.8287   3.304360   1620.705  800518721  0.000e+00
     3.8284   3.304337   1620.974  800518731  0.000e+00
     3.8296   3.304429   1621.347  800518741  0.000e+00
     3.8303   3.304481   1620.850  800518751  0.000e+00
     3.8302   3.304504   1621.098  800518761  0.000e+00
     3.8320   3.304643   1620.901  800518771  0.000e+00
     3.8324   3.304712   1621.306  800518781  0.000e+00
     3.8320   3.304671   1620.829  800518791  0.000e+00
     3.8320   3.304671   1620.995  800518801  0.000e+00
     3.8318   3.304689   1621.554  800518811  0.000e+00
     3.8319   3.304671   1621.057  800518821  0.000e+00
     3.8319   3.304689   1621.223  800518831  0.000e+00
     3.8320   3.304695   1621.161  800518841  0.000e+00
     3.8320   3.304695   1621.317  800518851  0.000e+00
     3.8320   3.304671   1621.151  800518861  0.000e+00
     3.8321   3.304671   1620.663  800518871  0.000e+00
     3.8320   3.304660   1620.840  800518881  0.000e+00
     3.8320   3.304700   1621.202  800518891  0.000e+00
     3.8321   3.304689   1621.078  800518901  0.000e+00
     3.8321   3.304666   1620.705  800518911  0.000e+00
     3.8328   3.304752   1620.944  800518921  0.000e+00
     3.8333   3.304804   1621.347  800518931  0.000e+00
     3.8330   3.304764   1621.027  800518941  0.000e+00
     3.8335   3.304804   1620.767  800518951  0.000e+00
     3.8341   3.304868   1621.151  800518961  0.000e+00
     3.8340   3.304862   1621.027  800518971  0.000e+00
     3.8345   3.304914   1621.379  800518981  0.000e+00
     3.8351   3.304966   1621.192  800518991  0.000e+00
     3.8356   3.304977   1620.799  800519001  0.000e+00
     3.8355   3.304994   1620.965  800519011  0.000e+00
     3.8357   3.305017   1621.192  800519021  0.000e+00
     3.8358   3.305035   1621.494  800519031  0.000e+00
     3.8360   3.305058   1621.141  800519041  0.000e+00
     3.8362   3.305064   1620.923  800519051  0.000e+00
     3.8369   3.305121   1620.882  800519061  0.000e+00
     3.8364   3.305104   1621.141  800519071  0.000e+00
     3.8401   3.305154   1615.713  800519081  0.000e+00
     3.8534   3.305942   1607.830  800519091  0.000e+00
     3.8597   3.306199   1599.389  800519101  0.000e+00
     3.8727   3.307038   1591.133  800519111  0.000e+00
     3.8931   3.308512   1582.889  800519121  0.000e+00
     3.9056   3.309346   1574.998  800519131  0.000e+00
     3.9148   3.309834   1566.703  800519141  0.000e+00
     3.9296   3.310899   1558.947  800519151  0.000e+00
     3.9375   3.311422   1551.729  800519161  0.000e+00
     3.9424   3.311587   1543.809  800519171  0.000e+00
     3.9479   3.311827   1536.303  800519181  0.000e+00
     3.9573   3.312396   1529.180  800519191  0.000e+00
     3.9625   3.312624   1521.623  800519201  0.000e+00
     3.9621   3.312525   1518.476  800519211  0.000e+00
     3.9600   3.312404   1518.507  800519221  0.000e+00
     3.9601   3.312485   1518.952  800519231  0.000e+00
     3.9628   3.312721   1519.159  800519241  0.000e+00
     3.9639   3.312796   1518.579  800519251  0.000e+00
     3.9632   3.312802   1518.662  800519261  0.000e+00
     3.9639   3.312871   1519.055  800519271  0.000e+00
     3.9641   3.312883   1519.117  800519281  0.000e+00
     3.9637   3.312866   1518.869  800519291  0.000e+00
     3.9636   3.312871   1519.035  800519301  0.000e+00
     3.9635   3.312825   1517.886  800519311  0.000e+00
     3.9624   3.312390   1510.391  800519321  0.000e+00
     3.9809   3.313605   1502.483  800519331  0.000e+00
     3.9886   3.313989   1494.409  800519341  0.000e+00
     3.9977   3.314529   1486.709  800519351  0.000e+00
     4.0198   3.316143   1478.533  800519361  0.000e+00
     4.0339   3.317221   1470.574  800519371  0.000e+00
     4.0477   3.318229   1462.803  800519381  0.000e+00
     4.0590   3.318925   1454.814  800519391  0.000e+00
     4.0678   3.319494   1446.557  800519401  0.000e+00
     4.0800   3.320387   1438.994  800519411  0.000e+00
     4.0838   3.320414   1432.093  800519421  0.000e+00
     4.0897   3.320724   1425.130  800519431  0.000e+00
     4.1476   3.325610   1417.681  800519441  0.000e+00
     4.1871   3.329280   1410.347  800519451  0.000e+00
     4.2037   3.330943   1402.754  800519461  0.000e+00
     4.1606   3.326389   1394.821  800519471  0.000e+00
     4.1505   3.324849   1387.642  800519481  0.000e+00
     4.1565   3.324986   1380.175  800519491  0.000e+00
     4.1782   3.326457   1372.377  800519501  0.000e+00
     4.1860   3.326976   1366.503  800519511  0.000e+00
     4.1839   3.326906   1366.296  800519521  0.000e+00
     4.1914   3.327588   1366.720  800519531  0.000e+00
     4.1926   3.327785   1367.009  800519541  0.000e+00
     4.1936   3.327895   1366.254  800519551  0.000e+00
     4.1930   3.327901   1366.699  800519561  0.000e+00
     4.1931   3.327906   1366.327  800519571  0.000e+00
     4.1914   3.327785   1366.895  800519581  0.000e+00
     4.1928   3.327912   1366.844  800519591  0.000e+00
     4.1924   3.327895   1366.937  800519601  0.000e+00
     4.1918   3.327837   1366.440  800519611  0.000e+00
     4.1920   3.327814   1365.768  800519621  0.000e+00
     4.2043   3.328563   1357.981  800519631  0.000e+00
     4.2278   3.330081   1350.112  800519641  0.000e+00
     4.3286   3.339517   1342.285  800519651  0.000e+00
     4.3783   3.344293   1334.581  800519661  0.000e+00
     4.4146   3.347790   1326.393  800519671  0.000e+00
     4.4222   3.348501   1318.473  800519681  0.000e+00
     4.4322   3.349269   1310.513  800519691  0.000e+00
     4.4497   3.350646   1302.988  800519701  0.000e+00
     4.4357   3.349119   1295.152  800519711  0.000e+00
     4.4175   3.346595   1287.100  800519721  0.000e+00
     4.4033   3.345098   1279.265  800519731  0.000e+00
     4.4463   3.348497   1271.555  800519741  0.000e+00
     4.4600   3.349404   1263.515  800519751  0.000e+00
     4.5007   3.352736   1255.744  800519761  0.000e+00
     4.5165   3.354235   1248.045  800519771  0.000e+00
     4.5476   3.356919   1240.699  800519781  0.000e+00
     4.5632   3.358210   1233.103  800519791  0.000e+00
     4.5815   3.359763   1225.860  800519801  0.000e+00
     4.5896   3.360301   1218.359  800519811  0.000e+00
     4.5821   3.359510   1215.198  800519821  0.000e+00
     4.5794   3.359342   1215.528  800519831  0.000e+00
     4.5753   3.358959   1214.918  800519841  0.000e+00
     4.5736   3.358767   1215.414  800519851  0.000e+00
     4.5728   3.358727   1215.425  800519861  0.000e+00
     4.5750   3.358953   1215.042  800519871  0.000e+00
     4.5751   3.359000   1215.744  800519881  0.000e+00
     4.5758   3.359046   1215.423  800519891  0.000e+00
     4.5741   3.358889   1215.166  800519901  0.000e+00
     4.5734   3.358814   1214.824  800519911  0.000e+00
     4.5752   3.359029   1215.588  800519921  0.000e+00
     4.5755   3.358882   1212.427  800519931  0.000e+00
     4.5829   3.359129   1204.369  800519941  0.000e+00
     4.5899   3.359063   1196.094  800519951  0.000e+00
     4.6422   3.363983   1188.223  800519961  0.000e+00
     4.6522   3.363963   1180.423  800519971  0.000e+00
     4.7149   3.369408   1172.007  800519981  0.000e+00
     4.7645   3.374102   1163.816  800519991  0.000e+00
     4.8204   3.379205   1155.636  800520001  0.000e+00
     4.9001   3.386482   1147.416  800520011  0.000e+00
     4.9787   3.394209   1139.878  800520021  0.000e+00
     4.9853   3.395227   1132.836  800520031  0.000e+00
     5.0657   3.402448   1125.824  800520041  0.000e+00
     5.0760   3.403606   1118.246  800520051  0.000e+00
     5.0831   3.404404   1113.373  800520061  0.000e+00
     5.0860   3.404847   1113.671  800520071  0.000e+00
     5.0920   3.405588   1113.258  800520081  0.000e+00
     5.0938   3.405898   1113.485  800520091  0.000e+00
     5.0956   3.406131   1113.647  800520101  0.000e+00
     5.0872   3.405402   1113.246  800520111  0.000e+00
     5.0845   3.405279   1113.585  800520121  0.000e+00
     5.0851   3.405332   1113.585  800520131  0.000e+00
     5.0860   3.405413   1113.429  800520141  0.000e+00
     5.0873   3.405530   1113.862  800520151  0.000e+00
     5.0852   3.405361   1113.759  800520161  0.000e+00
     5.0890   3.405640   1112.211  800520171  0.000e+00
     5.1036   3.406548   1104.167  800520181  0.000e+00
     5.1411   3.409615   1095.888  800520191  0.000e+00
     5.1737   3.412363   1087.877  800520201  0.000e+00
     5.2431   3.418359   1079.256  800520211  0.000e+00
     5.3012   3.423611   1070.917  800520221  0.000e+00
     5.3143   3.424941   1062.908  800520231  0.000e+00
     5.3565   3.428647   1054.321  800520241  0.000e+00
     5.4145   3.433852   1046.197  800520251  0.000e+00
     5.4949   3.441117   1038.375  800520261  0.000e+00
     5.5316   3.444748   1031.677  800520271  0.000e+00
     5.5574   3.447290   1024.351  800520281  0.000e+00
     5.5910   3.450131   1017.417  800520291  0.000e+00
     5.6228   3.453314   1010.018  800520301  0.000e+00
     5.6891   3.459380   1002.928  800520311  0.000e+00
     5.7168   3.462172    994.964  800520321  0.000e+00
     5.7425   3.464543    987.247  800520331  0.000e+00
     5.7949   3.469200    979.684  800520341  0.000e+00
     5.8307   3.472489    971.804  800520351  0.000e+00
     5.8816   3.477086    964.117  800520361  0.000e+00
     5.9254   3.480996    956.349  800520371  0.000e+00
     5.9750   3.485738    948.800  800520381  0.000e+00
     5.9743   3.485961    944.497  800520391  0.000e+00
     5.9704   3.485925    944.518  800520401  0.000e+00
     5.9753   3.486385    944.786  800520411  0.000e+00
     5.9803   3.487074    944.670  800520421  0.000e+00
     5.9848   3.487592    944.732  800520431  0.000e+00
     5.9840   3.487574    944.513  800520441  0.000e+00
     5.9899   3.488299    944.830  800520451  0.000e+00
     5.9925   3.488446    944.487  800520461  0.000e+00
     5.9991   3.489106    944.467  800520471  0.000e+00
     5.9995   3.489218    944.591  800520481  0.000e+00
     5.9959   3.488929    944.887  800520491  0.000e+00
     5.9961   3.488941    944.557  800520501  0.000e+00
     5.9968   3.488894    943.905  800520511  0.000e+00
     6.0538   3.493587    936.282  800520521  0.000e+00
     6.0668   3.494663    928.548  800520531  0.000e+00
     6.1327   3.500073    920.945  800520541  0.000e+00
     6.2221   3.508367    913.302  800520551  0.000e+00
     6.2622   3.512362    905.727  800520561  0.000e+00
     6.2964   3.515715    898.126  800520571  0.000e+00
     6.3479   3.520287    890.345  800520581  0.000e+00
     6.4246   3.527274    883.061  800520591  0.000e+00
     6.4475   3.529544    875.152  800520601  0.000e+00
     6.5457   3.538511    867.400  800520611  0.000e+00
     6.5565   3.539646    860.618  800520621  0.000e+00
     6.5096   3.535932    860.906  800520631  0.000e+00
     6.5503   3.539771    860.494  800520641  0.000e+00
     6.5779   3.542295    860.839  800520651  0.000e+00
     6.5757   3.542188    860.365  800520661  0.000e+00
     6.5771   3.542644    860.599  800520671  0.000e+00
     6.5816   3.543142    860.619  800520681  0.000e+00
     6.5793   3.543053    860.511  800520691  0.000e+00
     6.5808   3.543208    860.771  800520701  0.000e+00
     6.5769   3.542941    860.634  800520711  0.000e+00
     6.5751   3.542733    860.216  800520721  0.000e+00
     6.6150   3.545992    856.642  800520731  0.000e+00
     6.7010   3.553830    848.363  800520741  0.000e+00
     6.5853   3.541754    839.651  800520751  0.000e+00
     6.7474   3.556198    831.242  800520761  0.000e+00
     6.7721   3.558421    822.902  800520771  0.000e+00
     6.8281   3.562462    815.256  800520781  0.000e+00
     6.8990   3.569275    808.001  800520791  0.000e+00
     6.9985   3.578610    800.425  800520801  0.000e+00
     7.0137   3.579767    792.801  800520811  0.000e+00
     7.0250   3.580646    785.411  800520821  0.000e+00
     7.1145   3.588681    778.247  800520831  0.000e+00
     7.1736   3.593851    770.686  800520841  0.000e+00
     7.2412   3.600132    763.235  800520851  0.000e+00
     7.2762   3.603262    755.880  800520861  0.000e+00
     7.3086   3.605443    748.389  800520871  0.000e+00
     7.3957   3.613817    741.165  800520881  0.000e+00
     7.4220   3.616240    733.626  800520891  0.000e+00
     7.4654   3.619662    725.511  800520901  0.000e+00
     7.7232   3.644319    718.144  800520911  0.000e+00
     7.9670   3.670275    710.819  800520921  0.000e+00
     7.9605   3.671501    707.366  800520931  0.000e+00
     7.8401   3.660428    707.269  800520941  0.000e+00
     7.9278   3.668712    707.207  800520951  0.000e+00
     7.9571   3.672276    707.811  800520961  0.000e+00
     7.9716   3.674146    707.879  800520971  0.000e+00
     7.9815   3.675451    707.879  800520981  0.000e+00
     7.9832   3.675734    707.563  800520991  0.000e+00
     7.9807   3.675782    707.837  800521001  0.000e+00
     7.9761   3.675385    707.967  800521011  0.000e+00
     7.9798   3.675782    707.891  800521021  0.000e+00
     7.9814   3.675999    707.753  800521031  0.000e+00
     7.9882   3.676612    707.224  800521041  0.000e+00
     7.9895   3.676847    707.842  800521051  0.000e+00
     7.9913   3.677081    707.931  800521061  0.000e+00
     7.9927   3.677256    707.813  800521071  0.000e+00
     7.9910   3.677039    707.476  800521081  0.000e+00
     7.9922   3.677256    707.799  800521091  0.000e+00
     7.9920   3.677220    708.114  800521101  0.000e+00
     7.9937   3.677376    707.503  800521111  0.000e+00
     7.9934   3.677406    707.647  800521121  0.000e+00
     7.9954   3.677575    707.694  800521131  0.000e+00
     7.9938   3.677418    707.742  800521141  0.000e+00
     7.9973   3.677755    707.625  800521151  0.000e+00
     7.9949   3.677635    707.501  800521161  0.000e+00
     7.9959   3.677647    707.960  800521171  0.000e+00
     7.9993   3.677893    707.260  800521181  0.000e+00
     8.0006   3.677977    705.715  800521191  0.000e+00
     8.1170   3.688110    698.225  800521201  0.000e+00
     8.1205   3.688450    690.111  800521211  0.000e+00
     8.1894   3.694183    682.642  800521221  0.000e+00
     8.1669   3.692797    681.386  800521231  0.000e+00
     8.1299   3.689767    681.880  800521241  0.000e+00
     8.1796   3.693954    681.886  800521251  0.000e+00
     8.1699   3.693243    681.789  800521261  0.000e+00
     8.1889   3.695207    681.707  800521271  0.000e+00
     8.2002   3.696310    681.672  800521281  0.000e+00
     8.2001   3.696479    681.527  800521291  0.000e+00
     8.2042   3.696865    681.657  800521301  0.000e+00
     8.2019   3.696696    681.869  800521311  0.000e+00
     8.2043   3.697051    681.472  800521321  0.000e+00
     8.2309   3.699178    676.268  800521331  0.000e+00
     8.2894   3.704319    668.134  800521341  0.000e+00
     8.3545   3.710086    660.172  800521351  0.000e+00
     8.3926   3.713144    652.507  800521361  0.000e+00
     8.4676   3.719435    644.571  800521371  0.000e+00
     8.5340   3.725296    636.522  800521381  0.000e+00
     8.5862   3.729556    628.761  800521391  0.000e+00
     8.6967   3.739225    621.171  800521401  0.000e+00
     8.7650   3.745680    613.061  800521411  0.000e+00
     8.7908   3.748065    605.698  800521421  0.000e+00
     8.7531   3.745484    606.069  800521431  0.000e+00
     8.7754   3.747508    606.089  800521441  0.000e+00
     8.7821   3.748168    606.198  800521451  0.000e+00
     8.7853   3.748732    606.630  800521461  0.000e+00
     8.7847   3.748805    606.127  800521471  0.000e+00
     8.7851   3.748896    606.183  800521481  0.000e+00
     8.7821   3.748677    605.618  800521491  0.000e+00
     8.7843   3.748932    606.600  800521501  0.000e+00
     8.7865   3.749102    606.009  800521511  0.000e+00
     8.7886   3.749320    606.164  800521521  0.000e+00
     8.7908   3.749331    603.138  800521531  0.000e+00
     8.8481   3.753730    595.235  800521541  0.000e+00
     8.9645   3.764104    587.522  800521551  0.000e+00
     9.0528   3.772989    579.625  800521561  0.000e+00
     9.1029   3.777977    571.244  800521571  0.000e+00
     9.1407   3.781598    563.245  800521581  0.000e+00
     9.2026   3.787419    555.776  800521591  0.000e+00
     9.2359   3.790685    547.525  800521601  0.000e+00
     9.3371   3.800436    540.088  800521611  0.000e+00
     9.4139   3.808086    532.455  800521621  0.000e+00
     9.4460   3.811677    525.219  800521631  0.000e+00
     9.4694   3.813975    518.538  800521641  0.000e+00
     9.4679   3.813680    511.416  800521651  0.000e+00
     9.4533   3.811791    503.815  800521661  0.000e+00
     9.5077   3.816501    496.848  800521671  0.000e+00
     9.5631   3.821940    489.197  800521681  0.000e+00
     9.5810   3.823690    481.633  800521691  0.000e+00
     9.6027   3.825778    474.476  800521701  0.000e+00
     9.6472   3.829889    467.119  800521711  0.000e+00
     9.6695   3.831934    459.161  800521721  0.000e+00
     9.6656   3.831823    456.555  800521731  0.000e+00
     9.6712   3.832435    456.518  800521741  0.000e+00
     9.6701   3.832453    456.543  800521751  0.000e+00
     9.6721   3.832735    456.194  800521761  0.000e+00
     9.6728   3.832900    456.914  800521771  0.000e+00
     9.6736   3.833010    456.512  800521781  0.000e+00
     9.6738   3.833041    456.594  800521791  0.000e+00
     9.6738   3.833120    456.701  800521801  0.000e+00
     9.6722   3.832747    457.081  800521811  0.000e+00
     9.6710   3.832839    456.315  800521821  0.000e+00
     9.6733   3.833028    456.711  800521831  0.000e+00
     9.6710   3.832894    456.777  800521841  0.000e+00
     9.6722   3.832980    456.736  800521851  0.000e+00
     9.6706   3.832820    456.432  800521861  0.000e+00
     9.6716   3.832918    456.987  800521871  0.000e+00
     9.6724   3.832961    456.617  800521881  0.000e+00
     9.6712   3.832869    456.334  800521891  0.000e+00
     9.6708   3.832882    456.544  800521901  0.000e+00
     9.6722   3.832967    457.161  800521911  0.000e+00
     9.6716   3.832900    456.790  800521921  0.000e+00
     9.6732   3.833022    456.610  800521931  0.000e+00
     9.6734   3.833126    456.873  800521941  0.000e+00
     9.6732   3.833151    456.528  800521951  0.000e+00
     9.6748   3.833181    456.429  800521961  0.000e+00
     9.6738   3.833163    456.820  800521971  0.000e+00
     9.6709   3.832839    456.676  800521981  0.000e+00
     9.6696   3.832655    456.409  800521991  0.000e+00
     9.6697   3.832753    456.557  800522001  0.000e+00
     9.6724   3.832937    456.701  800522011  0.000e+00
     9.6684   3.832606    456.623  800522021  0.000e+00
     9.6702   3.832735    456.356  800522031  0.000e+00
     9.6706   3.832808    456.413  800522041  0.000e+00
     9.6712   3.832869    456.833  800522051  0.000e+00
     9.6712   3.832869    456.690  800522061  0.000e+00
     9.6710   3.832839    456.566  800522071  0.000e+00
     9.6709   3.832820    456.587  800522081  0.000e+00
     9.6707   3.832820    456.587  800522091  0.000e+00
     9.6703   3.832759    456.443  800522101  0.000e+00
     9.6699   3.832747    456.587  800522111  0.000e+00
     9.6695   3.832723    456.813  800522121  0.000e+00
     9.6691   3.832668    456.756  800522131  0.000e+00
     9.6696   3.832680    456.324  800522141  0.000e+00
     9.6679   3.832576    456.406  800522151  0.000e+00
     9.6684   3.832606    456.760  800522161  0.000e+00
     9.6685   3.832625    456.776  800522171  0.000e+00
     9.6685   3.832588    456.801  800522181  0.000e+00
     9.6675   3.832502    456.431  800522191  0.000e+00
     9.6655   3.832392    456.723  800522201  0.000e+00
     9.6684   3.832600    456.596  800522211  0.000e+00
     9.6649   3.832319    456.883  800522221  0.000e+00
     9.6676   3.832508    456.353  800522231  0.000e+00
     9.6659   3.832325    456.534  800522241  0.000e+00
     9.6665   3.832380    456.472  800522251  0.000e+00
     9.6640   3.832178    456.513  800522261  0.000e+00
     9.6677   3.832435    456.164  800522271  0.000e+00
     9.6797   3.833326    451.228  800522281  0.000e+00
     9.7455   3.839068    442.926  800522291  0.000e+00
     9.7986   3.843626    434.845  800522301  0.000e+00
     9.8721   3.850379    426.785  800522311  0.000e+00
     9.9306   3.855972    418.706  800522321  0.000e+00
     9.9835   3.861053    410.708  800522331  0.000e+00
    10.0353   3.865842    402.856  800522341  0.000e+00
    10.0890   3.871211    396.093  800522351  0.000e+00
    10.0711   3.869090    388.841  800522361  0.000e+00
    10.0792   3.869566    381.853  800522371  0.000e+00
    10.0764   3.868974    374.704  800522381  0.000e+00
    10.0957   3.870076    367.158  800522391  0.000e+00
    10.2498   3.886223    359.780  800522401  0.000e+00
    10.2425   3.885951    353.866  800522411  0.000e+00
    10.2267   3.884776    353.907  800522421  0.000e+00
    10.2166   3.883842    354.482  800522431  0.000e+00
    10.2303   3.885385    354.568  800522441  0.000e+00
    10.2298   3.885373    354.075  800522451  0.000e+00
    10.2261   3.885041    354.141  800522461  0.000e+00
    10.2253   3.884942    354.079  800522471  0.000e+00
    10.2247   3.884930    354.305  800522481  0.000e+00
    10.2204   3.884672    354.309  800522491  0.000e+00
    10.2231   3.884869    354.103  800522501  0.000e+00
    10.2277   3.885287    353.795  800522511  0.000e+00
    10.2272   3.885213    353.857  800522521  0.000e+00
    10.2530   3.887356    346.073  800522531  0.000e+00
    10.2057   3.881899    337.549  800522541  0.000e+00
    10.0457   3.863673    329.720  800522551  0.000e+00
    10.0597   3.862927    321.913  800522561  0.000e+00
    10.0910   3.864894    313.798  800522571  0.000e+00
    10.1383   3.868291    306.320  800522581  0.000e+00
    10.1346   3.868100    303.509  800522591  0.000e+00
    10.1227   3.867240    303.591  800522601  0.000e+00
    10.1173   3.866811    304.105  800522611  0.000e+00
    10.1226   3.867197    303.533  800522621  0.000e+00
    10.1207   3.867056    303.653  800522631  0.000e+00
    10.1200   3.867056    303.800  800522641  0.000e+00
    10.1271   3.867547    303.841  800522651  0.000e+00
    10.1333   3.868045    303.410  800522661  0.000e+00
    10.1356   3.868388    303.883  800522671  0.000e+00
    10.1359   3.868419    303.718  800522681  0.000e+00
    10.1435   3.868724    298.624  800522691  0.000e+00
    10.2430   3.877572    290.448  800522701  0.000e+00
    10.3419   3.887473    282.667  800522711  0.000e+00
    10.4737   3.901148    274.287  800522721  0.000e+00
    10.5593   3.910445    266.253  800522731  0.000e+00
    10.6574   3.921362    257.853  800522741  0.000e+00
    10.7119   3.927392    250.463  800522751  0.000e+00
    10.7577   3.931924    243.933  800522761  0.000e+00
    10.8034   3.936396    236.603  800522771  0.000e+00
    10.8324   3.939145    229.337  800522781  0.000e+00
    10.8527   3.940967    221.576  800522791  0.000e+00
    10.8838   3.943773    214.106  800522801  0.000e+00
    10.9360   3.948578    206.428  800522811  0.000e+00
    10.9531   3.950333    198.486  800522821  0.000e+00
    11.0061   3.955502    191.237  800522831  0.000e+00
    11.0367   3.958175    183.566  800522841  0.000e+00
    11.0655   3.961190    175.643  800522851  0.000e+00
    11.0826   3.962731    168.193  800522861  0.000e+00
    11.1154   3.965729    160.581  800522871  0.000e+00
    11.1367   3.967525    152.537  800522881  0.000e+00
    11.1817   3.971790    145.049  800522891  0.000e+00
    11.2678   3.980919    137.665  800522901  0.000e+00
    11.3183   3.986426    129.888  800522911  0.000e+00
    11.3135   3.985902    122.093  800522921  0.000e+00
    11.3100   3.985128    114.687  800522931  0.000e+00
    11.3034   3.983870    107.098  800522941  0.000e+00
    11.2804   3.980612     99.469  800522951  0.000e+00
    11.3085   3.982883     91.694  800522961  0.000e+00
    11.3137   3.983252     84.538  800522971  0.000e+00
    11.3125   3.982237     77.276  800522981  0.000e+00
    11.3125   3.980899     70.284  800522991  0.000e+00
    11.3130   3.980002     63.639  800523001  0.000e+00
    11.3294   3.981073     55.846  800523011  0.000e+00
    11.3667   3.983238     48.078  800523021  0.000e+00
    11.4413   3.989679     40.941  800523031  0.000e+00
    11.5611   3.999366     33.171  800523041  0.000e+00
    11.5546   3.999365     30.813  800523051  0.000e+00
    11.5828   4.002365     30.939  800523061  0.000e+00
    11.6100   4.005092     31.041  800523071  0.000e+00
    11.6030   4.004861     31.023  800523081  0.000e+00
    11.6424   4.008685     31.392  800523091  0.000e+00
    11.6593   4.010074     31.087  800523101  0.000e+00
    11.6550   4.009906     31.435  800523111  0.000e+00
    11.6718   4.011307     31.171  800523121  0.000e+00
    11.6754   4.011756     30.988  800523131  0.000e+00
    11.6928   4.013637     29.656  800523141  0.000e+00
    11.7745   4.021235     27.441  800523151  0.000e+00
    11.9398   4.035682     25.762  800523161  0.000e+00
    12.0178   4.042985     23.486  800523171  0.000e+00
    12.0642   4.048061     21.866  800523181  0.000e+00
    12.1361   4.054859     19.612  800523191  0.000e+00
    12.2494   4.065414     15.739  800523201  0.000e+00
    12.3432   4.074599      9.549  800523211  0.000e+00
    12.3484   4.076340      5.348  800523221  0.000e+00
    12.3498   4.076980      5.963  800523231  0.000e+00
    12.3552   4.077808      5.637  800523241  0.000e+00
    12.3572   4.078160      5.842  800523251  0.000e+00
    12.3577   4.078410      5.844  800523261  0.000e+00
    12.3580   4.078567      5.885  800523271  0.000e+00
    12.3552   4.078392      5.561  800523281  0.000e+00
    12.3547   4.078442      5.745  800523291  0.000e+00
    12.3561   4.078649      5.686  800523301  0.000e+00
    12.3582   4.078875      5.770  800523311  0.000e+00
    12.3641   4.079187      2.366  800523321  0.000e+00
    12.3753   3.225087      1.138  800523331  0.000e+00
    12.3904   2.096501      1.160  800523341  0.000e+00
    12.4060   1.217900      1.141  800523351  0.000e+00
    12.4100   2.046230      1.121  800523361  0.000e+00
    12.4209   2.041676      1.143  800523371  0.000e+00
    12.4360   0.047679      1.165  800523381  0.000e+00
    12.4724   0.025967      1.186  800523391  0.000e+00
    12.5153   0.020296      1.206  800523401  0.000e+00
    12.5360   0.017716      1.126  800523411  0.000e+00
    12.5654   0.015637      1.148  800523421  0.000e+00
    12.5898   0.014102      1.210  800523431  0.000e+00
    12.6211   0.012380      1.189  800523441  0.000e+00
    12.6455   0.011547      1.171  800523451  0.000e+00
    12.6803   0.010852      1.234  800523461  0.000e+00
    12.6940   0.010183      1.172  800523471  0.000e+00
    12.7314   0.008439      1.195  800523481  0.000e+00
    12.7552   0.007336      1.196  800523491  0.000e+00
    12.7858   0.006981      1.196  800523501  0.000e+00
    12.8162   0.006706      1.135  800523511  0.000e+00
    12.8423   0.006593      1.176  800523521  0.000e+00
    12.8732   0.006464      1.177  800523531  0.000e+00
    12.8934   0.006332      1.179  800523541  0.000e+00
    12.9109   0.006203      1.199  800523551  0.000e+00
    12.9413   0.006071      1.201  800523561  0.000e+00
    12.9676   0.005843      1.181  800523571  0.000e+00
    12.9941   0.005645      1.201  800523581  0.000e+00
    13.0215   0.005636      1.160  800523591  0.000e+00
    13.0449   0.005452      1.162  800523601  0.000e+00
    13.0739   0.005293      1.182  800523611  0.000e+00
    13.0992   0.005276      1.102  800523621  0.000e+00
    13.1219   0.005186      1.203  800523631  0.000e+00
    13.1488   0.005120      1.185  800523641  0.000e+00
    13.1754   0.005002      1.184  800523651  0.000e+00
    13.1999   0.004944      1.185  800523661  0.000e+00
    13.2253   0.004881      1.166  800523671  0.000e+00
    13.2514   0.004806      1.187  800523681  0.000e+00
    13.2737   0.004812      1.127  800523691  0.000e+00
    13.2920   0.004798      1.168  800523701  0.000e+00
    13.3119   0.004721      1.125  800523711  0.000e+00
    13.3277   0.004732      1.127  800523721  0.000e+00
    13.3452   0.004680      1.128  800523731  0.000e+00
    13.3570   0.004675      1.147  800523741  0.000e+00
    13.3785   0.004598      1.130  800523751  0.000e+00
    13.4003   0.004551      1.108  800523761  0.000e+00
    13.4143   0.004567      1.128  800523771  0.000e+00
    13.4305   0.004513      1.150  800523781  0.000e+00
    13.4460   0.004526      1.131  800523791  0.000e+00
    13.4578   0.004518      1.131  800523801  0.000e+00
    13.4693   0.004469      1.153  800523811  0.000e+00
    13.4830   0.004460      1.092  800523821  0.000e+00
    13.4950   0.004436      1.111  800523831  0.000e+00
    13.5123   0.004375      1.131  800523841  0.000e+00
    13.5243   0.004334      1.092  800523851  0.000e+00
    13.5346   0.004372      1.114  800523861  0.000e+00
    13.5468   0.004348      1.155  800523871  0.000e+00
    13.5640   0.004309      1.115  800523881  0.000e+00
    13.5841   0.004257      1.136  800523891  0.000e+00
    13.5968   0.004279      1.115  800523901  0.000e+00
    13.6075   0.004268      1.074  800523911  0.000e+00
    13.6190   0.004235      1.115  800523921  0.000e+00
    13.6309   0.004186      1.116  800523931  0.000e+00
    13.6403   0.004216      1.096  800523941  0.000e+00
    13.6539   0.004177      1.118  800523951  0.000e+00
    13.6655   0.004177      1.118  800523961  0.000e+00
    13.6703   0.004114      1.077  800523971  0.000e+00
    13.6834   0.004101      1.118  800523981  0.000e+00
    13.7006   0.004101      1.097  800523991  0.000e+00
    13.7150   0.004051      1.078  800524001  0.000e+00
    13.7230   0.004057      1.058  800524011  0.000e+00
    13.7369   0.004081      1.099  800524021  0.000e+00
    13.7479   0.004026      1.039  800524031  0.000e+00
    13.7583   0.003999      1.078  800524041  0.000e+00
    13.7670   0.003969      1.080  800524051  0.000e+00
    13.7762   0.003974      1.039  800524061  0.000e+00
    13.7910   0.003958      1.060  800524071  0.000e+00
    13.8027   0.003906      1.081  800524081  0.000e+00
    13.8144   0.003906      1.060  800524091  0.000e+00
    13.8288   0.003886      1.082  800524101  0.000e+00
    13.8406   0.003856      1.082  800524111  0.000e+00
    13.8477   0.003812      1.000  800524121  0.000e+00
    13.8601   0.003856      1.041  800524131  0.000e+00
    13.8747   0.003801      1.041  800524141  0.000e+00
    13.8868   0.003774      1.063  800524151  0.000e+00
    13.8982   0.003730      1.063  800524161  0.000e+00
    13.9084   0.003686      1.022  800524171  0.000e+00
    13.9174   0.003584      1.042  800524181  0.000e+00
    13.9268   0.003505      1.004  800524191  0.000e+00
    13.9381   0.003439      1.065  800524201  0.000e+00
    13.9497   0.003296      1.085  800524211  0.000e+00
    13.9601   0.003128      1.003  800524221  0.000e+00
    13.9720   0.003043      1.045  800524231  0.000e+00
    13.9798   0.002950      1.004  800524241  0.000e+00
    13.9932   0.002881      1.087  800524251  0.000e+00
    14.0049   0.002829      1.067  800524261  0.000e+00
    14.0140   0.002769      1.026  800524271  0.000e+00
    14.0211   0.002670      1.087  800524281  0.000e+00
    14.0308   0.002593      1.006  800524291  0.000e+00
    14.0409   0.002431      1.026  800524301  0.000e+00
    14.0485   0.002223      1.047  800524311  0.000e+00
    14.0578   0.002061      1.027  800524321  0.000e+00
    14.0678   0.001918      0.986  800524331  0.000e+00
    14.0760   0.001844      1.047  800524341  0.000e+00
    14.0804   0.001784      0.987  800524351  0.000e+00
    14.0821   0.001721      1.029  800524361  0.000e+00
    14.0866   0.001556      1.009  800524371  0.000e+00
    14.0917   0.001326      1.028  800524381  0.000e+00
    14.0991   0.001312      1.071  800524391  0.000e+00
    14.1059   0.001301      0.988  800524401  0.000e+00
    14.1110   0.001293      1.009  800524411  0.000e+00
    14.1155   0.001279      1.010  800524421  0.000e+00
    14.1203   0.001268      1.032  800524431  0.000e+00
    14.1213   0.001263      0.991  800524441  0.000e+00
    14.1272   0.001257      0.989  800524451  0.000e+00
    14.1323   0.001254      1.011  800524461  0.000e+00
    14.1384   0.001249      0.991  800524471  0.000e+00
    14.1384   0.001241      1.053  800524481  0.000e+00
    14.1441   0.001235      0.992  800524491  0.000e+00
    14.1500   0.001230      1.032  800524501  0.000e+00
    14.1609   0.001219      1.011  800524511  0.000e+00
    14.1681   0.001210      0.991  800524521  0.000e+00
    14.1767   0.001205      0.952  800524531  0.000e+00
    14.1900   0.001199      0.993  800524541  0.000e+00
    14.1991   0.001197      0.951  800524551  0.000e+00
    14.2070   0.001188      0.972  800524561  0.000e+00
    14.2121   0.001180      0.994  800524571  0.000e+00
    14.2343   0.001178      0.994  800524581  0.000e+00
    14.3153   0.044114      0.994  800524591  0.000e+00
    14.3948   0.015748      0.953  800524601  0.000e+00
    14.4263   0.008511      1.014  800524611  0.000e+00
    14.4459   0.007149      1.056  800524621  0.000e+00
    14.4572   0.006302      0.995  800524631  0.000e+00
    14.4634   0.005722      0.974  800524641  0.000e+00
    14.4682   0.005213      0.955  800524651  0.000e+00
    14.4732   0.004697      0.934  800524661  0.000e+00
    14.4810   0.004304      0.976  800524671  0.000e+00
    14.4830   0.003974      0.914  800524681  0.000e+00
    14.4878   0.003678      0.936  800524691  0.000e+00
    14.4880   0.003420      0.956  800524701  0.000e+00
    14.4928   0.003205      0.916  800524711  0.000e+00
    14.5056   0.003002      0.915  800524721  0.000e+00
    14.5178   0.002816      0.916  800524731  0.000e+00
    14.5278   0.002665      0.896  800524741  0.000e+00
    14.5378   0.002475      0.876  800524751  0.000e+00
    14.5464   0.002272      0.917  800524761  0.000e+00
    14.5497   0.002025      0.896  800524771  0.000e+00
    14.5609   0.001907      0.896  800524781  0.000e+00
    14.5731   0.001847      0.876  800524791  0.000e+00
    14.5765   0.001767      0.837  800524801  0.000e+00
    14.5852   0.001696      0.877  800524811  0.000e+00
    14.6003   0.001644      0.856  800524821  0.000e+00
    14.6144   0.001584      0.857  800524831  0.000e+00
    14.6260   0.001537      0.898  800524841  0.000e+00
    14.6351   0.001501      0.878  800524851  0.000e+00
    14.6434   0.001471      0.857  800524861  0.000e+00
    14.6568   0.001444      0.899  800524871  0.000e+00
    14.6699   0.001419      0.879  800524881  0.000e+00
    14.6779   0.001389      0.920  800524891  0.000e+00
    14.6848   0.001361      0.858  800524901  0.000e+00
    14.6928   0.001342      0.879  800524911  0.000e+00
    14.7006   0.001323      0.859  800524921  0.000e+00
    14.7105   0.001298      0.880  800524931  0.000e+00
    14.7198   0.001274      0.900  800524941  0.000e+00
    14.7271   0.001246      0.880  800524951  0.000e+00
    14.7348   0.001219      0.901  800524961  0.000e+00
    14.7412   0.001191      0.900  800524971  0.000e+00
    14.7419   0.001161      0.881  800524981  0.000e+00
    14.7531   0.001123      0.882  800524991  0.000e+00
    14.7614   0.001060      0.860  800525001  0.000e+00
    14.7684   0.001043      0.861  800525011  0.000e+00
    14.7734   0.001027      0.901  800525021  0.000e+00
    14.7797   0.001016      0.882  800525031  0.000e+00
    14.7852   0.001010      0.861  800525041  0.000e+00
    14.7919   0.001005      0.882  800525051  0.000e+00
    14.7963   0.000997      0.902  800525061  0.000e+00
    14.8053   0.000988      0.902  800525071  0.000e+00
    14.8021   0.000977      0.882  800525081  0.000e+00
    14.8085   0.000966      0.923  800525091  0.000e+00
    14.8205   0.000953      0.821  800525101  0.000e+00
    14.8327   0.000914      0.862  800525111  0.000e+00
    14.8434   0.000909      0.945  800525121  0.000e+00
    14.8431   0.000906      0.904  800525131  0.000e+00
    14.8539   0.000901      0.863  800525141  0.000e+00
    14.8621   0.000898      0.842  800525151  0.000e+00
    14.8731   0.000892      0.904  800525161  0.000e+00
    14.8832   0.000884      0.863  800525171  0.000e+00
    14.8935   0.000884      0.883  800525181  0.000e+00
    14.8997   0.000879      0.905  800525191  0.000e+00
    14.9128   0.000876      0.823  800525201  0.000e+00
    14.9243   0.000870      0.843  800525211  0.000e+00
    14.9312   0.000868      0.864  800525221  0.000e+00
    14.9374   0.000865      0.864  800525231  0.000e+00
    14.9443   0.000865      0.843  800525241  0.000e+00
    14.9517   0.000860      0.885  800525251  0.000e+00
    14.9570   0.000857      0.823  800525261  0.000e+00
    14.9662   0.000854      0.864  800525271  0.000e+00
    14.9637   0.000846      0.885  800525281  0.000e+00
    14.9763   0.000838      0.886  800525291  0.000e+00
    14.9820   0.000835      0.824  800525301  0.000e+00
    14.9784   0.000832      0.844  800525311  0.000e+00
    14.9900   0.000832      0.845  800525321  0.000e+00
    14.9895   0.000829      0.845  800525331  0.000e+00
    14.9912   0.000829      0.887  800525341  0.000e+00
    14.9976   0.000827      0.865  800525351  0.000e+00
    15.0081   0.000827      0.866  800525361  0.000e+00
    15.0198   0.000827      0.825  800525371  0.000e+00
    15.0215   0.000824      0.846  800525381  0.000e+00
    15.0297   0.000821      0.867  800525391  0.000e+00
    15.0417   0.000818      0.867  800525401  0.000e+00
    15.0433   0.000816      0.867  800525411  0.000e+00
    15.0443   0.000816      0.825  800525421  0.000e+00
    15.0587   0.000816      0.826  800525431  0.000e+00
    15.0698   0.000813      0.846  800525441  0.000e+00
    15.0765   0.000810      0.867  800525451  0.000e+00
    15.0890   0.000810      0.867  800525461  0.000e+00
    15.0970   0.000807      0.806  800525471  0.000e+00
    15.1023   0.000807      0.847  800525481  0.000e+00
    15.1101   0.000807      0.847  800525491  0.000e+00
    15.1141   0.000805      0.868  800525501  0.000e+00
    15.1215   0.000807      0.847  800525511  0.000e+00
    15.1329   0.000805      0.807  800525521  0.000e+00
    15.1410   0.000805      0.807  800525531  0.000e+00
    15.1503   0.000802      0.826  800525541  0.000e+00
    15.1576   0.000799      0.786  800525551  0.000e+00
    15.1625   0.000796      0.868  800525561  0.000e+00
    15.1677   0.000796      0.786  800525571  0.000e+00
    15.1777   0.000796      0.848  800525581  0.000e+00
    15.1829   0.000794      0.807  800525591  0.000e+00
    15.1905   0.000796      0.807  800525601  0.000e+00
    15.1985   0.000794      0.828  800525611  0.000e+00
    15.2074   0.000794      0.787  800525621  0.000e+00
    15.2139   0.000791      0.848  800525631  0.000e+00
    15.2170   0.000794      0.787  800525641  0.000e+00
    15.2230   0.000791      0.787  800525651  0.000e+00
    15.2208   0.000791      0.808  800525661  0.000e+00
    15.2267   0.000791      0.807  800525671  0.000e+00
    15.2383   0.000791      0.828  800525681  0.000e+00
    15.2443   0.000791      0.808  800525691  0.000e+00
    15.2426   0.000788      0.788  800525701  0.000e+00
    15.2489   0.000791      0.788  800525711  0.000e+00
    15.2580   0.000788      0.807  800525721  0.000e+00
    15.2657   0.000788      0.809  800525731  0.000e+00
    15.2744   0.000788      0.808  800525741  0.000e+00
    15.2822   0.000788      0.809  800525751  0.000e+00
    15.2892   0.000788      0.768  800525761  0.000e+00
    15.2960   0.000786      0.768  800525771  0.000e+00
    15.3010   0.000786      0.850  800525781  0.000e+00
    15.3074   0.000786      0.830  800525791  0.000e+00
    15.3118   0.000786      0.810  800525801  0.000e+00
    15.3166   0.000786      0.768  800525811  0.000e+00
    15.3228   0.000786      0.748  800525821  0.000e+00
    15.3242   0.000786      0.789  800525831  0.000e+00
    15.3255   0.000786      0.769  800525841  0.000e+00
    15.3304   0.000786      0.748  800525851  0.000e+00
    15.3384   0.000786      0.789  800525861  0.000e+00
    15.3496   0.000786      0.769  800525871  0.000e+00
    15.3562   0.000786      0.789  800525881  0.000e+00
    15.3632   0.000783      0.789  800525891  0.000e+00
    15.3701   0.000783      0.770  800525901  0.000e+00
    15.3744   0.000783      0.790  800525911  0.000e+00
    15.3835   0.000783      0.749  800525921  0.000e+00
    15.3842   0.000780      0.728  800525931  0.000e+00
    15.3908   0.000780      0.749  800525941  0.000e+00
    15.3843   0.053772      0.728  800525951  0.000e+00
    15.3973   0.031897      0.729  800525961  0.000e+00
    15.3919   0.020678      0.790  800525971  0.000e+00
    15.4007   0.019767      0.709  800525981  0.000e+00
    15.3965   0.010756      0.750  800525991  0.000e+00
    15.3919   0.009654      0.729  800526001  0.000e+00
    15.3898   0.007003      0.791  800526011  0.000e+00
    15.3898   0.005730      0.709  800526021  0.000e+00
    15.3886   0.005112      0.709  800526031  0.000e+00
    15.3836   0.004425      0.770  800526041  0.000e+00
    15.3799   0.003865      0.771  800526051  0.000e+00
    15.3647   0.004650      0.770  800526061  0.000e+00
    15.3789   0.004342      0.750  800526071  0.000e+00
    15.3864   0.003983      0.771  800526081  0.000e+00
