* Sea-Bird SBE37SM-RS232  Data File:
* FileName = C:\CE25007_recovery_data\16379_cal_dip_data.hex
* Software version SeatermV2 2.8.0.119
* Temperature SN = 16379
* Conductivity SN = 16379
* System UpLoad Time = May 14 2025 08:33:57
* sample interval = 10 seconds
* <ApplicationData>
* <Seaterm232>
* <SoftwareVersion>2.8.0.119</SoftwareVersion>
* <BuildDate>07-Nov-2018</BuildDate>
* </Seaterm232>
* </ApplicationData>
* <InstrumentState>
* <HardwareData DeviceType='SBE37SM-RS232' SerialNumber='03716379'>
*
*    <Manufacturer>Sea-Bird Electronics, Inc.</Manufacturer>
*
*    <FirmwareVersion>4.1</FirmwareVersion>
*
*    <FirmwareDate>Jan 17 2012 15:32:03</FirmwareDate>
*
*    <CommandSetVersion>1.0</CommandSetVersion>
*
*    <PCBAssembly>41660B</PCBAssembly>
*
*    <PCBSerialNum>126631</PCBSerialNum>
*
*    <PCBAssembly>41661D</PCBAssembly>
*
*    <PCBSerialNum>126616</PCBSerialNum>
*
*    <PCBAssembly>41720F</PCBAssembly>
*
*    <PCBSerialNum>126638</PCBSerialNum>
*
*    <MfgDate>23 Oct 2017</MfgDate>
*
*    <FirmwareLoader>SBE 37-232-V3 FirmwareLoader V 1.0</FirmwareLoader>
*
*    <InternalSensors>
*
*       <Sensor id='Temperature'>
*
*          <type>temperature-1</type>
*
*          <SerialNumber>03716379</SerialNumber>
*
*       </Sensor>
*
*       <Sensor id='Conductivity'>
*
*          <type>conductivity-1</type>
*
*          <SerialNumber>03716379</SerialNumber>
*
*       </Sensor>
*
*       <Sensor id='Pressure'>
*
*          <type>strain-0</type>
*
*          <SerialNumber>5231590</SerialNumber>
*
*       </Sensor>
*
*    </InternalSensors>
*
* </HardwareData>
* <StatusData DeviceType='SBE37SM-RS232' SerialNumber='03716379'>
*
*    <DateTime>2025-05-14T08:32:45</DateTime>
*
*    <EventSummary numEvents='2'/>
*
*    <Power>
*
*       <vMain>13.27</vMain>
*
*       <vLith> 3.00</vLith>
*
*    </Power>
*
*    <MemorySummary>
*
*       <Bytes>717375</Bytes>
*
*       <Samples>47825</Samples>
*
*       <SamplesFree>511415</SamplesFree>
*
*       <SampleLength>15</SampleLength>
*
*    </MemorySummary>
*
*    <AutonomousSampling>no, stop command</AutonomousSampling>
*
* </StatusData>
* <ConfigurationData DeviceType='SBE37SM-RS232' SerialNumber='03716379'>
*
*    <PressureInstalled>yes</PressureInstalled>
*
*    <PumpInstalled>yes</PumpInstalled>
*
*    <MinCondFreq>3300.0</MinCondFreq>
*
*    <SampleDataFormat>converted engineering alternate</SampleDataFormat>
*
*    <OutputSalinity>no</OutputSalinity>
*
*    <OutputSV>no</OutputSV>
*
*    <TxRealTime>no</TxRealTime>
*
*    <SampleInterval>10</SampleInterval>
*
*    <SyncMode>no</SyncMode>
*
* </ConfigurationData>
* <CalibrationCoefficients DeviceType='SBE37SM-RS232' SerialNumber='03716379'>
*
*    <Calibration format='TEMP1' id='Temperature'>
*
*       <SerialNum>03716379</SerialNum>
*
*       <CalDate>11-Apr-24</CalDate>
*
*       <A0>-7.630368e-05</A0>
*
*       <A1>2.984528e-04</A1>
*
*       <A2>-3.722704e-06</A2>
*
*       <A3>1.835454e-07</A3>
*
*    </Calibration>
*
*    <Calibration format='WBCOND0' id='Conductivity'>
*
*       <SerialNum>03716379</SerialNum>
*
*       <CalDate>11-Apr-24</CalDate>
*
*       <G>-9.984846e-01</G>
*
*       <H>1.272883e-01</H>
*
*       <I>-3.629264e-05</I>
*
*       <J>1.841512e-05</J>
*
*       <PCOR>-9.570000e-08</PCOR>
*
*       <TCOR>3.250000e-06</TCOR>
*
*       <WBOTC>-8.331831e-07</WBOTC>
*
*    </Calibration>
*
*    <Calibration format='STRAIN0' id='Pressure'>
*
*       <SerialNum>5231590</SerialNum>
*
*       <CalDate>15-Mar-24</CalDate>
*
*       <PA0>-2.484942e+00</PA0>
*
*       <PA1>3.022007e-02</PA1>
*
*       <PA2>2.211377e-09</PA2>
*
*       <PTCA0>5.230608e+05</PTCA0>
*
*       <PTCA1>-7.999838e+00</PTCA1>
*
*       <PTCA2>1.873288e-01</PTCA2>
*
*       <PTCB0>1.029536e+02</PTCB0>
*
*       <PTCB1>-4.850168e-03</PTCB1>
*
*       <PTCB2>0.000000e+00</PTCB2>
*
*       <PTEMPA0>-9.532836e+01</PTEMPA0>
*
*       <PTEMPA1>3.883124e-02</PTEMPA1>
*
*       <PTEMPA2>1.692320e-06</PTEMPA2>
*
*       <POFFSET>0.000000e+00</POFFSET>
*
*       <PRANGE>1.015300e+04</PRANGE>
*
*    </Calibration>
*
* </CalibrationCoefficients>
* <EventCounters DeviceType='SBE37SM-RS232' SerialNumber='03716379'>
*
*    <EventSummary numEvents='2'/>
*
*    <Event type='PON reset' count='2'/>
*
* </EventCounters></InstrumentState>
# nquan = 5
# nvalues = 1494                                  
# units = specified
# name 0 = tv290C: Temperature [ITS-90, deg C]
# name 1 = cond0S/m: Conductivity [S/m]
# name 2 = prdM: Pressure, Strain Gauge [db]
# name 3 = timeK: Time, Instrument [seconds]
# name 4 = flag:  0.000e+00
# span 0 =     2.8060,    18.1361                 
# span 1 =   0.000445,   4.092116                 
# span 2 =      0.647,   2414.963                 
# span 3 =  800473801,  800526221                 
# span 4 = 0.0000e+00, 0.0000e+00                 
# interval = seconds: 10
# start_time = May 13 2025 17:50:01 [Instrument's time stamp, first data scan]
# bad_flag = -9.990e-29
# <Sensors count="3" >
#   <sensor Channel="1" >
#     <!-- Count, Temperature -->
#     <TemperatureSensor SensorID="58" >
#       <SerialNumber>16379</SerialNumber>
#       <CalibrationDate>11-Apr-24</CalibrationDate>
#       <A0>-7.63036800e-005</A0>
#       <A1>2.98452800e-004</A1>
#       <A2>-3.72270400e-006</A2>
#       <A3>1.83545400e-007</A3>
#       <Slope>1.00000000</Slope>
#       <Offset>0.0000</Offset>
#     </TemperatureSensor>
#   </sensor>
#   <sensor Channel="2" >
#     <!-- Frequency 0, Conductivity -->
#     <ConductivitySensor SensorID="3" >
#       <SerialNumber>16379</SerialNumber>
#       <CalibrationDate>11-Apr-24</CalibrationDate>
#       <UseG_J>1</UseG_J>
#       <!-- Cell const and series R are applicable only for wide range sensors. -->
#       <SeriesR>0.0000</SeriesR>
#       <CellConst>2000.0000</CellConst>
#       <ConductivityType>1</ConductivityType>
#       <Coefficients equation="0" >
#         <A>0.00000000e+000</A>
#         <B>0.00000000e+000</B>
#         <C>0.00000000e+000</C>
#         <D>0.00000000e+000</D>
#         <M>0.0</M>
#         <CPcor>-9.57000000e-008</CPcor>
#       </Coefficients>
#       <Coefficients equation="1" >
#         <G>-9.98484600e-001</G>
#         <H>1.27288300e-001</H>
#         <I>-3.62926400e-005</I>
#         <J>1.84151200e-005</J>
#         <CPcor>-9.57000000e-008</CPcor>
#         <CTcor>3.2500e-006</CTcor>
#         <!-- WBOTC not applicable unless ConductivityType = 1. -->
#         <WBOTC>-8.33183100e-007</WBOTC>
#       </Coefficients>
#       <Slope>1.00000000</Slope>
#       <Offset>0.00000</Offset>
#     </ConductivitySensor>
#   </sensor>
#   <sensor Channel="3" >
#     <!-- Count, Pressure, Strain Gauge -->
#     <PressureSensor SensorID="46" >
#       <SerialNumber>5231590</SerialNumber>
#       <CalibrationDate>15-Mar-24</CalibrationDate>
#       <PA0>-2.48494200e+000</PA0>
#       <PA1>3.02200700e-002</PA1>
#       <PA2>2.21137700e-009</PA2>
#       <PTEMPA0>-9.53283600e+001</PTEMPA0>
#       <PTEMPA1>3.88312400e-002</PTEMPA1>
#       <PTEMPA2>1.69232000e-006</PTEMPA2>
#       <PTCA0>5.23060800e+005</PTCA0>
#       <PTCA1>-7.99983800e+000</PTCA1>
#       <PTCA2>1.87328800e-001</PTCA2>
#       <PTCB0>1.02953600e+002</PTCB0>
#       <PTCB1>-4.85016800e-003</PTCB1>
#       <PTCB2>0.00000000e+000</PTCB2>
#       <Offset>0.000000</Offset>
#     </PressureSensor>
#   </sensor>
# </Sensors>
# datcnv_date = May 19 2025 08:08:23, 7.26.7.129 [datcnv_vars = 4]
# datcnv_in = C:\CE25007_recovery_data\16379_cal_dip_data.hex C:\CE25007_recovery_data\16379_cal_dip_data.xmlcon
# datcnv_skipover = 0
# file_type = ascii
*END*
    18.1361   0.000503      0.744  800473801  0.000e+00
    17.4037   0.001578      0.888  800511301  0.000e+00
    17.2780   0.001564      1.012  800511311  0.000e+00
    17.2169   0.001550      1.012  800511321  0.000e+00
    17.1628   0.001542      1.012  800511331  0.000e+00
    17.1359   0.001531      1.052  800511341  0.000e+00
    17.0927   0.001522      1.094  800511351  0.000e+00
    17.0525   0.001511      1.198  800511361  0.000e+00
    17.0261   0.001503      1.155  800511371  0.000e+00
    17.0128   0.001494      1.113  800511381  0.000e+00
    17.0029   0.001480      0.967  800511391  0.000e+00
    16.9507   0.001472      1.134  800511401  0.000e+00
    16.9762   0.001467      1.112  800511411  0.000e+00
    16.9782   0.001455      1.195  800511421  0.000e+00
    16.9187   0.001450      1.112  800511431  0.000e+00
    16.8950   0.001441      1.173  800511441  0.000e+00
    16.8208   0.001430      1.132  800511451  0.000e+00
    16.7766   0.001422      1.236  800511461  0.000e+00
    16.7495   0.001414      1.214  800511471  0.000e+00
    16.6882   0.001408      1.130  800511481  0.000e+00
    16.6529   0.001403      1.212  800511491  0.000e+00
    16.6300   0.001394      1.275  800511501  0.000e+00
    16.6242   0.001389      1.274  800511511  0.000e+00
    16.5861   0.001383      1.294  800511521  0.000e+00
    16.5696   0.001380      1.274  800511531  0.000e+00
    16.5519   0.001375      1.210  800511541  0.000e+00
    16.5375   0.001369      1.357  800511551  0.000e+00
    16.5114   0.001361      1.292  800511561  0.000e+00
    16.4714   0.001355      1.208  800511571  0.000e+00
    16.4170   0.001350      1.250  800511581  0.000e+00
    16.4065   0.001344      1.269  800511591  0.000e+00
    16.3668   0.001330      1.292  800511601  0.000e+00
    16.3535   0.001328      1.205  800511611  0.000e+00
    16.3339   0.001319      1.225  800511621  0.000e+00
    16.2889   0.001314      1.268  800511631  0.000e+00
    16.2868   0.001308      1.308  800511641  0.000e+00
    16.2632   0.001300      1.308  800511651  0.000e+00
    16.2427   0.001291      1.287  800511661  0.000e+00
    16.2203   0.001283      1.307  800511671  0.000e+00
    16.1920   0.001278      1.264  800511681  0.000e+00
    16.1609   0.001269      1.180  800511691  0.000e+00
    16.1524   0.001261      1.326  800511701  0.000e+00
    16.1372   0.001252      1.220  800511711  0.000e+00
    16.1193   0.001244      1.262  800511721  0.000e+00
    16.1006   0.001239      1.304  800511731  0.000e+00
    16.0789   0.001230      1.116  800511741  0.000e+00
    16.0530   0.001219      1.261  800511751  0.000e+00
    16.0446   0.001211      1.343  800511761  0.000e+00
    16.0217   0.001202      1.278  800511771  0.000e+00
    16.0084   0.001194      1.301  800511781  0.000e+00
    15.9722   0.001191      1.195  800511791  0.000e+00
    15.9568   0.001183      1.193  800511801  0.000e+00
    15.9420   0.001177      1.235  800511811  0.000e+00
    15.9085   0.001172      1.296  800511821  0.000e+00
    15.9078   0.001163      1.214  800511831  0.000e+00
    15.8937   0.001158      1.234  800511841  0.000e+00
    15.8804   0.001149      1.213  800511851  0.000e+00
    15.8420   0.001133      1.232  800511861  0.000e+00
    15.8115   0.001127      1.230  800511871  0.000e+00
    15.8198   0.001124      1.230  800511881  0.000e+00
    15.8138   0.001119      1.189  800511891  0.000e+00
    15.7907   0.001116      1.229  800511901  0.000e+00
    15.7790   0.001110      1.208  800511911  0.000e+00
    15.7701   0.001108      1.187  800511921  0.000e+00
    15.7654   0.001102      1.229  800511931  0.000e+00
    15.7405   0.001094      1.165  800511941  0.000e+00
    15.7237   0.001091      1.144  800511951  0.000e+00
    15.6989   0.001085      1.227  800511961  0.000e+00
    15.6844   0.001080      1.225  800511971  0.000e+00
    15.6718   0.001077      1.370  800511981  0.000e+00
    15.6498   0.001074      1.267  800511991  0.000e+00
    15.6374   0.001072      1.140  800512001  0.000e+00
    15.6301   0.001066      1.139  800512011  0.000e+00
    15.6085   0.001063      1.222  800512021  0.000e+00
    15.5933   0.001060      1.199  800512031  0.000e+00
    15.5710   0.001058      1.179  800512041  0.000e+00
    15.5527   0.001055      1.179  800512051  0.000e+00
    15.5453   0.001052      1.283  800512061  0.000e+00
    15.5307   0.001049      1.177  800512071  0.000e+00
    15.5360   0.001049      1.156  800512081  0.000e+00
    15.5254   0.001047      1.177  800512091  0.000e+00
    15.5122   0.001041      1.154  800512101  0.000e+00
    15.5058   0.001038      1.135  800512111  0.000e+00
    15.4844   0.001035      1.133  800512121  0.000e+00
    15.5010   0.001033      1.154  800512131  0.000e+00
    15.5020   0.001033      0.987  800512141  0.000e+00
    15.5115   0.001033      1.132  800512151  0.000e+00
    15.5001   0.001030      1.173  800512161  0.000e+00
    15.4852   0.001030      1.027  800512171  0.000e+00
    15.4900   0.001027      1.151  800512181  0.000e+00
    15.5039   0.001027      1.232  800512191  0.000e+00
    15.4725   0.001024      1.109  800512201  0.000e+00
    15.4831   0.001024      1.170  800512211  0.000e+00
    15.4865   0.001024      1.066  800512221  0.000e+00
    15.4816   0.001021      1.107  800512231  0.000e+00
    15.4760   0.001019      1.149  800512241  0.000e+00
    15.4679   0.001019      1.126  800512251  0.000e+00
    15.4702   0.001019      1.126  800512261  0.000e+00
    15.4617   0.001016      1.147  800512271  0.000e+00
    15.4439   0.001016      1.189  800512281  0.000e+00
    15.4222   0.001013      1.062  800512291  0.000e+00
    15.4139   0.001013      1.062  800512301  0.000e+00
    15.4055   0.001013      1.166  800512311  0.000e+00
    15.3902   0.001010      1.166  800512321  0.000e+00
    15.3848   0.001010      1.102  800512331  0.000e+00
    15.3605   0.001008      1.166  800512341  0.000e+00
    15.3522   0.001008      1.123  800512351  0.000e+00
    15.3384   0.001002      1.037  800512361  0.000e+00
    15.3428   0.001002      1.121  800512371  0.000e+00
    15.3152   0.001002      1.100  800512381  0.000e+00
    15.3102   0.000999      1.037  800512391  0.000e+00
    15.3083   0.000999      1.121  800512401  0.000e+00
    15.3050   0.000997      1.142  800512411  0.000e+00
    15.2988   0.000994      1.183  800512421  0.000e+00
    15.2889   0.000994      1.221  800512431  0.000e+00
    15.2820   0.000997      1.054  800512441  0.000e+00
    15.2746   0.000997      1.140  800512451  0.000e+00
    15.2634   0.000991      1.179  800512461  0.000e+00
    15.2496   0.000988      1.096  800512471  0.000e+00
    15.2369   0.000991      1.263  800512481  0.000e+00
    15.2286   0.000988      0.971  800512491  0.000e+00
    15.2213   0.000988      1.117  800512501  0.000e+00
    15.2154   0.000985      1.094  800512511  0.000e+00
    15.1623   0.000986      1.115  800512521  0.000e+00
    15.1342   0.000983      1.032  800512531  0.000e+00
    15.0753   0.000977      1.157  800512541  0.000e+00
    15.0618   0.000977      1.009  800512551  0.000e+00
    15.0531   0.000977      1.176  800512561  0.000e+00
    15.0592   0.000977      1.113  800512571  0.000e+00
    15.0792   0.000977      1.132  800512581  0.000e+00
    15.0933   0.000974      1.009  800512591  0.000e+00
    15.0945   0.000974      1.028  800512601  0.000e+00
    15.0867   0.000974      1.046  800512611  0.000e+00
    12.7639   0.001010      1.672  800512621  0.000e+00
    12.5677   1.345577      2.047  800512631  0.000e+00
    12.3581   4.060689      4.904  800512641  0.000e+00
    12.3519   4.092116      8.135  800512651  0.000e+00
    12.3482   4.087117     11.782  800512661  0.000e+00
    12.3585   4.083364     12.031  800512671  0.000e+00
    12.3490   4.081087     11.983  800512681  0.000e+00
    12.3432   4.028056      9.163  800512691  0.000e+00
    12.3443   3.649173      5.342  800512701  0.000e+00
    12.3441   3.279406      2.671  800512711  0.000e+00
    12.3444   3.998411      2.769  800512721  0.000e+00
    12.3432   4.077290      2.993  800512731  0.000e+00
    12.3435   4.066480      5.656  800512741  0.000e+00
    12.3437   4.077343     10.218  800512751  0.000e+00
    12.3415   4.077352     15.242  800512761  0.000e+00
    12.2278   4.067662     20.010  800512771  0.000e+00
    12.1136   4.056789     24.656  800512781  0.000e+00
    11.9846   4.044901     29.343  800512791  0.000e+00
    11.7122   4.020978     36.158  800512801  0.000e+00
    11.3999   3.991602     42.935  800512811  0.000e+00
    11.3243   3.984764     49.914  800512821  0.000e+00
    11.3328   3.985017     56.795  800512831  0.000e+00
    11.3253   3.984600     63.504  800512841  0.000e+00
    11.3304   3.985304     70.344  800512851  0.000e+00
    11.3154   3.984079     77.553  800512861  0.000e+00
    11.3007   3.983193     85.479  800512871  0.000e+00
    11.3080   3.984330     93.774  800512881  0.000e+00
    11.2941   3.983607    102.177  800512891  0.000e+00
    11.2092   3.974753    107.724  800512901  0.000e+00
    11.1072   3.964338    115.623  800512911  0.000e+00
    11.1626   3.970588    126.072  800512921  0.000e+00
    11.1299   3.957042    136.921  800512931  0.000e+00
    11.1067   3.965788    147.685  800512941  0.000e+00
    11.0536   3.960887    157.133  800512951  0.000e+00
    10.9986   3.955850    166.604  800512961  0.000e+00
    10.9703   3.953275    176.078  800512971  0.000e+00
    10.9096   3.947681    186.071  800512981  0.000e+00
    10.8564   3.942327    196.131  800512991  0.000e+00
    10.8162   3.938809    206.396  800513001  0.000e+00
    10.7953   3.937473    216.558  800513011  0.000e+00
    10.7654   3.934642    226.853  800513021  0.000e+00
    10.7514   3.933736    236.620  800513031  0.000e+00
    10.6718   3.926229    247.096  800513041  0.000e+00
    10.5882   3.918331    257.306  800513051  0.000e+00
    10.4824   3.907008    267.600  800513061  0.000e+00
    10.2468   3.882230    277.724  800513071  0.000e+00
    10.2012   3.876874    287.305  800513081  0.000e+00
    10.2140   3.878650    297.455  800513091  0.000e+00
    10.0558   3.863643    307.710  800513101  0.000e+00
    10.0240   3.860401    317.986  800513111  0.000e+00
    10.2047   3.880061    327.987  800513121  0.000e+00
    10.1917   3.880288    338.056  800513131  0.000e+00
    10.2245   3.884754    348.351  800513141  0.000e+00
    10.1922   3.882725    358.714  800513151  0.000e+00
    10.0544   3.869018    368.738  800513161  0.000e+00
     9.9927   3.863275    378.768  800513171  0.000e+00
     9.9685   3.860836    389.028  800513181  0.000e+00
     9.9350   3.857755    399.033  800513191  0.000e+00
     9.9050   3.855293    408.965  800513201  0.000e+00
     9.8499   3.850916    418.913  800513211  0.000e+00
     9.7574   3.842560    428.753  800513221  0.000e+00
     9.7178   3.838887    438.828  800513231  0.000e+00
     9.6681   3.834333    448.883  800513241  0.000e+00
     9.6480   3.832111    458.917  800513251  0.000e+00
     9.6164   3.829291    469.015  800513261  0.000e+00
     9.5909   3.826812    479.025  800513271  0.000e+00
     9.5499   3.823403    488.962  800513281  0.000e+00
     9.4754   3.816487    499.371  800513291  0.000e+00
     9.4541   3.814453    509.183  800513301  0.000e+00
     9.2986   3.799836    519.426  800513311  0.000e+00
     9.1918   3.789082    529.763  800513321  0.000e+00
     9.1152   3.781786    539.651  800513331  0.000e+00
     9.0345   3.773889    549.712  800513341  0.000e+00
     8.9178   3.762736    559.795  800513351  0.000e+00
     8.8315   3.754152    570.067  800513361  0.000e+00
     8.7775   3.748765    580.360  800513371  0.000e+00
     8.6573   3.738435    590.335  800513381  0.000e+00
     8.5660   3.730105    599.897  800513391  0.000e+00
     8.5206   3.726572    609.857  800513401  0.000e+00
     8.4232   3.718277    619.881  800513411  0.000e+00
     8.3698   3.713130    630.199  800513421  0.000e+00
     8.3043   3.707218    640.323  800513431  0.000e+00
     8.2100   3.698679    650.035  800513441  0.000e+00
     8.1426   3.693245    659.935  800513451  0.000e+00
     8.0774   3.686363    670.109  800513461  0.000e+00
     7.9851   3.677703    680.319  800513471  0.000e+00
     7.6003   3.640247    690.306  800513481  0.000e+00
     7.6233   3.640648    700.035  800513491  0.000e+00
     7.4520   3.623497    710.337  800513501  0.000e+00
     7.4014   3.618282    720.242  800513511  0.000e+00
     7.2792   3.606117    730.371  800513521  0.000e+00
     7.1791   3.596998    740.528  800513531  0.000e+00
     7.0811   3.588422    750.512  800513541  0.000e+00
     6.9975   3.581001    760.943  800513551  0.000e+00
     6.9971   3.580926    771.236  800513561  0.000e+00
     6.9067   3.572875    781.423  800513571  0.000e+00
     6.8096   3.563718    791.550  800513581  0.000e+00
     6.7634   3.559231    801.746  800513591  0.000e+00
     6.7619   3.560498    812.369  800513601  0.000e+00
     6.7465   3.559274    822.405  800513611  0.000e+00
     6.6550   3.551840    832.625  800513621  0.000e+00
     6.5310   3.539723    842.823  800513631  0.000e+00
     6.4694   3.533589    852.736  800513641  0.000e+00
     6.3979   3.527274    863.208  800513651  0.000e+00
     6.3738   3.524742    872.843  800513661  0.000e+00
     6.3166   3.520245    882.687  800513671  0.000e+00
     6.2224   3.510932    892.623  800513681  0.000e+00
     6.1556   3.505180    902.385  800513691  0.000e+00
     6.0528   3.495444    912.357  800513701  0.000e+00
     5.9959   3.489880    922.043  800513711  0.000e+00
     5.9452   3.485216    932.232  800513721  0.000e+00
     5.8881   3.479665    941.933  800513731  0.000e+00
     5.8534   3.476340    951.698  800513741  0.000e+00
     5.7893   3.470593    961.491  800513751  0.000e+00
     5.7621   3.468226    971.340  800513761  0.000e+00
     5.6901   3.461869    981.428  800513771  0.000e+00
     5.6387   3.456953    991.055  800513781  0.000e+00
     5.5678   3.450420   1000.906  800513791  0.000e+00
     5.4741   3.441683   1011.031  800513801  0.000e+00
     5.4196   3.436235   1020.827  800513811  0.000e+00
     5.3565   3.430550   1031.065  800513821  0.000e+00
     5.2872   3.424007   1040.848  800513831  0.000e+00
     5.2638   3.421900   1050.394  800513841  0.000e+00
     5.2167   3.417508   1060.928  800513851  0.000e+00
     5.1353   3.410333   1071.127  800513861  0.000e+00
     5.0655   3.403758   1081.024  800513871  0.000e+00
     4.9910   3.397206   1091.035  800513881  0.000e+00
     4.9548   3.393561   1101.060  800513891  0.000e+00
     4.9387   3.391984   1111.253  800513901  0.000e+00
     4.9032   3.388722   1121.707  800513911  0.000e+00
     4.8123   3.380387   1132.161  800513921  0.000e+00
     4.7018   3.370020   1142.280  800513931  0.000e+00
     4.6765   3.367381   1152.413  800513941  0.000e+00
     4.6244   3.362724   1163.122  800513951  0.000e+00
     4.6251   3.362663   1173.235  800513961  0.000e+00
     4.6239   3.362777   1183.503  800513971  0.000e+00
     4.5733   3.358444   1193.815  800513981  0.000e+00
     4.5885   3.360021   1203.706  800513991  0.000e+00
     4.5861   3.360557   1213.632  800514001  0.000e+00
     4.5583   3.358530   1224.051  800514011  0.000e+00
     4.5012   3.353562   1234.293  800514021  0.000e+00
     4.4724   3.351144   1244.238  800514031  0.000e+00
     4.4552   3.349704   1254.364  800514041  0.000e+00
     4.4792   3.352449   1264.167  800514051  0.000e+00
     4.4222   3.347595   1274.723  800514061  0.000e+00
     4.4143   3.347060   1284.443  800514071  0.000e+00
     4.4102   3.347309   1294.656  800514081  0.000e+00
     4.4027   3.346892   1304.713  800514091  0.000e+00
     4.3833   3.345645   1314.885  800514101  0.000e+00
     4.3374   3.341992   1324.679  800514111  0.000e+00
     4.2572   3.334990   1334.768  800514121  0.000e+00
     4.1602   3.325686   1344.921  800514131  0.000e+00
     4.1382   3.323708   1354.948  800514141  0.000e+00
     4.1183   3.321893   1364.828  800514151  0.000e+00
     4.1873   3.328540   1374.689  800514161  0.000e+00
     4.1765   3.328404   1384.937  800514171  0.000e+00
     4.1528   3.326711   1395.114  800514181  0.000e+00
     4.1314   3.325006   1404.946  800514191  0.000e+00
     4.1125   3.323465   1414.544  800514201  0.000e+00
     4.0556   3.318674   1425.009  800514211  0.000e+00
     4.0483   3.318101   1434.945  800514221  0.000e+00
     4.0411   3.317725   1444.863  800514231  0.000e+00
     4.0216   3.316343   1455.074  800514241  0.000e+00
     4.0201   3.316340   1464.802  800514251  0.000e+00
     4.0268   3.317560   1474.710  800514261  0.000e+00
     4.0088   3.316416   1484.442  800514271  0.000e+00
     3.9758   3.313713   1494.677  800514281  0.000e+00
     3.9536   3.311824   1504.323  800514291  0.000e+00
     3.9436   3.311356   1514.444  800514301  0.000e+00
     3.9341   3.310766   1524.419  800514311  0.000e+00
     3.9270   3.310432   1534.163  800514321  0.000e+00
     3.9200   3.310127   1544.022  800514331  0.000e+00
     3.9123   3.309827   1554.104  800514341  0.000e+00
     3.8919   3.308400   1564.439  800514351  0.000e+00
     3.8873   3.308315   1574.038  800514361  0.000e+00
     3.8743   3.307696   1584.247  800514371  0.000e+00
     3.8548   3.306449   1594.659  800514381  0.000e+00
     3.8359   3.304929   1605.302  800514391  0.000e+00
     3.8308   3.304700   1615.620  800514401  0.000e+00
     3.8149   3.303796   1625.885  800514411  0.000e+00
     3.8059   3.303189   1636.056  800514421  0.000e+00
     3.7909   3.302437   1646.618  800514431  0.000e+00
     3.7852   3.302109   1657.234  800514441  0.000e+00
     3.7824   3.302287   1667.523  800514451  0.000e+00
     3.7633   3.301250   1677.718  800514461  0.000e+00
     3.7574   3.300974   1688.156  800514471  0.000e+00
     3.7585   3.301378   1698.311  800514481  0.000e+00
     3.7483   3.301056   1709.003  800514491  0.000e+00
     3.7247   3.299444   1719.370  800514501  0.000e+00
     3.7115   3.298553   1729.664  800514511  0.000e+00
     3.7109   3.298811   1739.821  800514521  0.000e+00
     3.7084   3.299088   1750.253  800514531  0.000e+00
     3.7046   3.299335   1760.390  800514541  0.000e+00
     3.7085   3.300123   1770.212  800514551  0.000e+00
     3.6978   3.299749   1780.689  800514561  0.000e+00
     3.6873   3.299293   1790.691  800514571  0.000e+00
     3.6825   3.299331   1800.377  800514581  0.000e+00
     3.6795   3.299462   1810.244  800514591  0.000e+00
     3.6766   3.299546   1820.248  800514601  0.000e+00
     3.6678   3.299288   1830.612  800514611  0.000e+00
     3.6648   3.299396   1840.459  800514621  0.000e+00
     3.6630   3.299603   1850.233  800514631  0.000e+00
     3.6476   3.298757   1860.303  800514641  0.000e+00
     3.6366   3.298215   1870.501  800514651  0.000e+00
     3.6319   3.298171   1880.404  800514661  0.000e+00
     3.6215   3.298000   1890.254  800514671  0.000e+00
     3.5978   3.296505   1900.359  800514681  0.000e+00
     3.5759   3.294818   1910.422  800514691  0.000e+00
     3.5611   3.293944   1920.612  800514701  0.000e+00
     3.5520   3.293448   1930.392  800514711  0.000e+00
     3.5363   3.292424   1940.763  800514721  0.000e+00
     3.5261   3.291887   1950.871  800514731  0.000e+00
     3.5111   3.291019   1960.811  800514741  0.000e+00
     3.5102   3.291237   1971.385  800514751  0.000e+00
     3.4926   3.290341   1981.464  800514761  0.000e+00
     3.4678   3.288586   1991.469  800514771  0.000e+00
     3.4610   3.288281   2001.844  800514781  0.000e+00
     3.4432   3.287171   2012.295  800514791  0.000e+00
     3.4319   3.286582   2022.439  800514801  0.000e+00
     3.4196   3.285906   2032.416  800514811  0.000e+00
     3.4068   3.285184   2042.529  800514821  0.000e+00
     3.3956   3.284613   2052.719  800514831  0.000e+00
     3.3916   3.284564   2062.326  800514841  0.000e+00
     3.3833   3.284278   2072.665  800514851  0.000e+00
     3.3686   3.283712   2082.708  800514861  0.000e+00
     3.3444   3.281901   2092.879  800514871  0.000e+00
     3.3257   3.280616   2102.743  800514881  0.000e+00
     3.3029   3.279095   2113.105  800514891  0.000e+00
     3.2780   3.277400   2122.982  800514901  0.000e+00
     3.2568   3.275914   2132.890  800514911  0.000e+00
     3.2422   3.274943   2142.885  800514921  0.000e+00
     3.1999   3.271946   2152.985  800514931  0.000e+00
     3.1891   3.271231   2163.171  800514941  0.000e+00
     3.1649   3.269584   2173.537  800514951  0.000e+00
     3.1472   3.268331   2183.481  800514961  0.000e+00
     3.1199   3.266285   2193.405  800514971  0.000e+00
     3.0891   3.264285   2203.445  800514981  0.000e+00
     3.0728   3.263021   2213.518  800514991  0.000e+00
     3.0432   3.260844   2223.634  800515001  0.000e+00
     3.0250   3.259615   2233.815  800515011  0.000e+00
     3.0002   3.258010   2243.836  800515021  0.000e+00
     2.9783   3.256296   2254.039  800515031  0.000e+00
     2.9560   3.254721   2264.104  800515041  0.000e+00
     2.9363   3.253280   2273.800  800515051  0.000e+00
     2.9212   3.252289   2283.984  800515061  0.000e+00
     2.9046   3.251154   2294.517  800515071  0.000e+00
     2.8910   3.250279   2304.342  800515081  0.000e+00
     2.8803   3.249681   2314.135  800515091  0.000e+00
     2.8801   3.249881   2324.185  800515101  0.000e+00
     2.8745   3.249768   2334.233  800515111  0.000e+00
     2.8785   3.250047   2337.622  800515121  0.000e+00
     2.8690   3.249540   2344.186  800515131  0.000e+00
     2.8585   3.248977   2352.383  800515141  0.000e+00
     2.8491   3.248465   2360.466  800515151  0.000e+00
     2.8479   3.248526   2368.271  800515161  0.000e+00
     2.8450   3.248580   2376.406  800515171  0.000e+00
     2.8409   3.248548   2385.102  800515181  0.000e+00
     2.8396   3.248701   2392.972  800515191  0.000e+00
     2.8396   3.248812   2396.298  800515201  0.000e+00
     2.8336   3.248473   2401.151  800515211  0.000e+00
     2.8134   3.246967   2406.300  800515221  0.000e+00
     2.8108   3.246801   2410.907  800515231  0.000e+00
     2.8102   3.246790   2413.408  800515241  0.000e+00
     2.8091   3.246611   2413.408  800515251  0.000e+00
     2.8072   3.246432   2413.916  800515261  0.000e+00
     2.8060   3.246345   2413.735  800515271  0.000e+00
     2.8060   3.246265   2413.523  800515281  0.000e+00
     2.8067   3.246322   2413.511  800515291  0.000e+00
     2.8070   3.246357   2413.828  800515301  0.000e+00
     2.8070   3.246311   2413.722  800515311  0.000e+00
     2.8067   3.246288   2413.638  800515321  0.000e+00
     2.8066   3.246276   2413.786  800515331  0.000e+00
     2.8074   3.246340   2413.456  800515341  0.000e+00
     2.8076   3.246345   2413.583  800515351  0.000e+00
     2.8076   3.246369   2413.816  800515361  0.000e+00
     2.8078   3.246380   2413.795  800515371  0.000e+00
     2.8074   3.246380   2413.647  800515381  0.000e+00
     2.8083   3.246409   2413.647  800515391  0.000e+00
     2.8083   3.246426   2413.783  800515401  0.000e+00
     2.8088   3.246461   2413.792  800515411  0.000e+00
     2.8086   3.246461   2413.741  800515421  0.000e+00
     2.8084   3.246455   2413.771  800515431  0.000e+00
     2.8088   3.246478   2414.101  800515441  0.000e+00
     2.8088   3.246490   2413.834  800515451  0.000e+00
     2.8094   3.246513   2413.686  800515461  0.000e+00
     2.8090   3.246507   2413.792  800515471  0.000e+00
     2.8092   3.246501   2413.635  800515481  0.000e+00
     2.8090   3.246501   2413.559  800515491  0.000e+00
     2.8096   3.246542   2413.432  800515501  0.000e+00
     2.8087   3.246519   2414.025  800515511  0.000e+00
     2.8087   3.246502   2414.343  800515521  0.000e+00
     2.8089   3.246501   2414.013  800515531  0.000e+00
     2.8089   3.246484   2413.716  800515541  0.000e+00
     2.8089   3.246478   2413.483  800515551  0.000e+00
     2.8084   3.246432   2413.631  800515561  0.000e+00
     2.8083   3.246449   2413.971  800515571  0.000e+00
     2.8087   3.246484   2414.182  800515581  0.000e+00
     2.8082   3.246426   2413.356  800515591  0.000e+00
     2.8071   3.246345   2413.420  800515601  0.000e+00
     2.8073   3.246386   2414.225  800515611  0.000e+00
     2.8085   3.246449   2413.737  800515621  0.000e+00
     2.8083   3.246409   2413.483  800515631  0.000e+00
     2.8082   3.246432   2414.140  800515641  0.000e+00
     2.8080   3.246455   2414.479  800515651  0.000e+00
     2.8086   3.246449   2413.916  800515661  0.000e+00
     2.8084   3.246438   2413.737  800515671  0.000e+00
     2.8084   3.246455   2414.255  800515681  0.000e+00
     2.8083   3.246455   2414.128  800515691  0.000e+00
     2.8084   3.246473   2414.234  800515701  0.000e+00
     2.8088   3.246461   2413.462  800515711  0.000e+00
     2.8088   3.246478   2414.064  800515721  0.000e+00
     2.8090   3.246502   2414.319  800515731  0.000e+00
     2.8089   3.246501   2413.949  800515741  0.000e+00
     2.8088   3.246507   2414.255  800515751  0.000e+00
     2.8089   3.246501   2414.213  800515761  0.000e+00
     2.8089   3.246507   2413.937  800515771  0.000e+00
     2.8087   3.246467   2413.671  800515781  0.000e+00
     2.8084   3.246455   2414.128  800515791  0.000e+00
     2.8083   3.246473   2414.107  800515801  0.000e+00
     2.8084   3.246473   2414.361  800515811  0.000e+00
     2.8085   3.246461   2413.958  800515821  0.000e+00
     2.8080   3.246426   2413.607  800515831  0.000e+00
     2.8080   3.246444   2414.001  800515841  0.000e+00
     2.8078   3.246398   2414.137  800515851  0.000e+00
     2.8068   3.246317   2413.840  800515861  0.000e+00
     2.8069   3.246299   2413.946  800515871  0.000e+00
     2.8070   3.246346   2414.531  800515881  0.000e+00
     2.8079   3.246380   2413.883  800515891  0.000e+00
     2.8083   3.246432   2414.137  800515901  0.000e+00
     2.8085   3.246461   2414.073  800515911  0.000e+00
     2.8084   3.246450   2414.285  800515921  0.000e+00
     2.8080   3.246432   2413.904  800515931  0.000e+00
     2.8071   3.246374   2414.103  800515941  0.000e+00
     2.8076   3.246398   2414.391  800515951  0.000e+00
     2.8078   3.246409   2414.200  800515961  0.000e+00
     2.8072   3.246398   2414.539  800515971  0.000e+00
     2.8082   3.246449   2414.085  800515981  0.000e+00
     2.8086   3.246472   2413.755  800515991  0.000e+00
     2.8086   3.246496   2414.391  800516001  0.000e+00
     2.8087   3.246507   2414.243  800516011  0.000e+00
     2.8082   3.246467   2414.328  800516021  0.000e+00
     2.8084   3.246490   2414.285  800516031  0.000e+00
     2.8089   3.246496   2413.798  800516041  0.000e+00
     2.8088   3.246519   2414.328  800516051  0.000e+00
     2.8088   3.246496   2413.734  800516061  0.000e+00
     2.8088   3.246496   2414.158  800516071  0.000e+00
     2.8087   3.246519   2414.963  800516081  0.000e+00
     2.8088   3.246490   2413.840  800516091  0.000e+00
     2.8085   3.246478   2413.946  800516101  0.000e+00
     2.8088   3.246490   2414.073  800516111  0.000e+00
     2.8090   3.246501   2414.264  800516121  0.000e+00
     2.8087   3.246513   2414.879  800516131  0.000e+00
     2.8093   3.246519   2413.649  800516141  0.000e+00
     2.8093   3.246548   2414.315  800516151  0.000e+00
     2.8093   3.246571   2414.082  800516161  0.000e+00
     2.8095   3.246571   2414.328  800516171  0.000e+00
     2.8097   3.246565   2414.179  800516181  0.000e+00
     2.8097   3.246559   2414.052  800516191  0.000e+00
     2.8098   3.246466   2410.746  800516201  0.000e+00
     2.8165   3.246700   2403.542  800516211  0.000e+00
     2.8341   3.247847   2396.549  800516221  0.000e+00
     2.8415   3.248249   2388.646  800516231  0.000e+00
     2.8421   3.248079   2380.668  800516241  0.000e+00
     2.8448   3.248019   2372.714  800516251  0.000e+00
     2.8451   3.247785   2365.245  800516261  0.000e+00
     2.8453   3.247569   2358.436  800516271  0.000e+00
     2.8449   3.247529   2358.352  800516281  0.000e+00
     2.8453   3.247627   2358.966  800516291  0.000e+00
     2.8457   3.247679   2358.415  800516301  0.000e+00
     2.8454   3.247644   2358.055  800516311  0.000e+00
     2.8448   3.247668   2358.784  800516321  0.000e+00
     2.8452   3.247685   2358.542  800516331  0.000e+00
     2.8453   3.247691   2358.394  800516341  0.000e+00
     2.8456   3.247702   2358.309  800516351  0.000e+00
     2.8459   3.247731   2358.161  800516361  0.000e+00
     2.8458   3.247737   2359.008  800516371  0.000e+00
     2.8465   3.247760   2358.470  800516381  0.000e+00
     2.8462   3.247620   2355.005  800516391  0.000e+00
     2.8496   3.247531   2347.180  800516401  0.000e+00
     2.8574   3.247904   2339.658  800516411  0.000e+00
     2.8589   3.247862   2334.438  800516421  0.000e+00
     2.8561   3.247666   2334.523  800516431  0.000e+00
     2.8652   3.248172   2328.771  800516441  0.000e+00
     2.8675   3.248060   2321.562  800516451  0.000e+00
     2.8745   3.248358   2313.726  800516461  0.000e+00
     2.8747   3.248159   2306.115  800516471  0.000e+00
     2.8777   3.248035   2297.654  800516481  0.000e+00
     2.8980   3.249425   2290.020  800516491  0.000e+00
     2.9017   3.249509   2282.546  800516501  0.000e+00
     2.9090   3.249807   2274.597  800516511  0.000e+00
     2.9307   3.251301   2266.743  800516521  0.000e+00
     2.9600   3.253344   2258.614  800516531  0.000e+00
     2.9929   3.255809   2250.537  800516541  0.000e+00
     2.9956   3.256050   2242.993  800516551  0.000e+00
     3.0102   3.256943   2234.865  800516561  0.000e+00
     3.0251   3.258028   2227.055  800516571  0.000e+00
     3.0313   3.258338   2219.098  800516581  0.000e+00
     3.0409   3.258914   2211.597  800516591  0.000e+00
     3.0823   3.261959   2203.734  800516601  0.000e+00
     3.0934   3.262807   2196.074  800516611  0.000e+00
     3.1152   3.264292   2188.236  800516621  0.000e+00
     3.1246   3.265030   2181.127  800516631  0.000e+00
     3.1424   3.266232   2174.103  800516641  0.000e+00
     3.1441   3.266311   2167.376  800516651  0.000e+00
     3.1517   3.266691   2160.098  800516661  0.000e+00
     3.1655   3.267551   2152.504  800516671  0.000e+00
     3.1832   3.268735   2145.291  800516681  0.000e+00
     3.1958   3.269561   2138.090  800516691  0.000e+00
     3.2267   3.271788   2130.137  800516701  0.000e+00
     3.2118   3.270832   2129.195  800516711  0.000e+00
     3.2187   3.271428   2128.847  800516721  0.000e+00
     3.2291   3.272367   2128.985  800516731  0.000e+00
     3.2302   3.272535   2129.408  800516741  0.000e+00
     3.2308   3.272651   2128.858  800516751  0.000e+00
     3.2306   3.272685   2129.281  800516761  0.000e+00
     3.2308   3.272755   2129.535  800516771  0.000e+00
     3.2305   3.272732   2129.091  800516781  0.000e+00
     3.2313   3.272813   2129.556  800516791  0.000e+00
     3.2310   3.272801   2129.218  800516801  0.000e+00
     3.2312   3.272842   2129.103  800516811  0.000e+00
     3.2307   3.272778   2129.208  800516821  0.000e+00
     3.2301   3.272738   2129.241  800516831  0.000e+00
     3.2384   3.273194   2125.571  800516841  0.000e+00
     3.2586   3.274454   2117.682  800516851  0.000e+00
     3.2718   3.275309   2109.984  800516861  0.000e+00
     3.2778   3.275533   2102.489  800516871  0.000e+00
     3.2848   3.275849   2094.369  800516881  0.000e+00
     3.3001   3.276785   2086.757  800516891  0.000e+00
     3.3268   3.278632   2078.912  800516901  0.000e+00
     3.3511   3.280403   2071.005  800516911  0.000e+00
     3.3578   3.280841   2063.406  800516921  0.000e+00
     3.3725   3.281807   2055.816  800516931  0.000e+00
     3.3865   3.282698   2047.878  800516941  0.000e+00
     3.3943   3.283171   2040.312  800516951  0.000e+00
     3.4068   3.283882   2032.480  800516961  0.000e+00
     3.4075   3.283933   2028.084  800516971  0.000e+00
     3.4085   3.283933   2028.253  800516981  0.000e+00
     3.4144   3.284577   2028.380  800516991  0.000e+00
     3.4141   3.284629   2028.591  800517001  0.000e+00
     3.4137   3.284664   2028.285  800517011  0.000e+00
     3.4139   3.284687   2027.980  800517021  0.000e+00
     3.4141   3.284751   2028.455  800517031  0.000e+00
     3.4140   3.284751   2028.487  800517041  0.000e+00
     3.4139   3.284756   2028.656  800517051  0.000e+00
     3.4137   3.284745   2028.318  800517061  0.000e+00
     3.4136   3.284704   2028.001  800517071  0.000e+00
     3.4137   3.284716   2028.276  800517081  0.000e+00
     3.4132   3.284698   2028.550  800517091  0.000e+00
     3.4131   3.284693   2028.360  800517101  0.000e+00
     3.4133   3.284669   2027.589  800517111  0.000e+00
     3.4134   3.284727   2028.646  800517121  0.000e+00
     3.4131   3.284698   2028.096  800517131  0.000e+00
     3.4132   3.284698   2028.402  800517141  0.000e+00
     3.4126   3.284658   2028.287  800517151  0.000e+00
     3.4128   3.284687   2028.319  800517161  0.000e+00
     3.4129   3.284693   2028.773  800517171  0.000e+00
     3.4115   3.284542   2027.801  800517181  0.000e+00
     3.4110   3.284536   2028.688  800517191  0.000e+00
     3.4115   3.284548   2028.636  800517201  0.000e+00
     3.4111   3.284507   2028.552  800517211  0.000e+00
     3.4110   3.284495   2027.939  800517221  0.000e+00
     3.4111   3.284513   2028.108  800517231  0.000e+00
     3.4115   3.284536   2028.467  800517241  0.000e+00
     3.4114   3.284536   2028.699  800517251  0.000e+00
     3.4113   3.284501   2028.192  800517261  0.000e+00
     3.4111   3.284489   2027.770  800517271  0.000e+00
     3.4110   3.284513   2028.584  800517281  0.000e+00
     3.4112   3.284524   2028.742  800517291  0.000e+00
     3.4112   3.284519   2028.457  800517301  0.000e+00
     3.4113   3.284530   2028.563  800517311  0.000e+00
     3.4113   3.284519   2028.457  800517321  0.000e+00
     3.4113   3.284507   2028.457  800517331  0.000e+00
     3.4096   3.284403   2028.985  800517341  0.000e+00
     3.4067   3.284171   2028.394  800517351  0.000e+00
     3.4092   3.284304   2027.971  800517361  0.000e+00
     3.4091   3.284321   2028.108  800517371  0.000e+00
     3.4102   3.284403   2028.330  800517381  0.000e+00
     3.4101   3.284414   2028.372  800517391  0.000e+00
     3.4094   3.284362   2028.351  800517401  0.000e+00
     3.4107   3.284466   2028.478  800517411  0.000e+00
     3.4112   3.284478   2027.464  800517421  0.000e+00
     3.4155   3.284493   2019.813  800517431  0.000e+00
     3.4260   3.285076   2011.951  800517441  0.000e+00
     3.4445   3.286199   2003.941  800517451  0.000e+00
     3.4505   3.286446   1995.954  800517461  0.000e+00
     3.4534   3.286414   1988.516  800517471  0.000e+00
     3.4616   3.286760   1980.634  800517481  0.000e+00
     3.4731   3.287401   1972.426  800517491  0.000e+00
     3.4801   3.287706   1964.662  800517501  0.000e+00
     3.4886   3.288168   1956.697  800517511  0.000e+00
     3.5044   3.289164   1948.585  800517521  0.000e+00
     3.5217   3.290339   1940.823  800517531  0.000e+00
     3.5454   3.292061   1933.123  800517541  0.000e+00
     3.5731   3.294277   1925.287  800517551  0.000e+00
     3.5638   3.293655   1925.235  800517561  0.000e+00
     3.5719   3.294369   1924.432  800517571  0.000e+00
     3.5745   3.294706   1925.150  800517581  0.000e+00
     3.5749   3.294805   1924.728  800517591  0.000e+00
     3.5756   3.294915   1925.435  800517601  0.000e+00
     3.5740   3.294823   1925.404  800517611  0.000e+00
     3.5750   3.294927   1924.876  800517621  0.000e+00
     3.5762   3.295014   1924.685  800517631  0.000e+00
     3.5764   3.295072   1925.478  800517641  0.000e+00
     3.5773   3.295089   1924.707  800517651  0.000e+00
     3.5772   3.295107   1925.013  800517661  0.000e+00
     3.5774   3.295171   1925.309  800517671  0.000e+00
     3.5779   3.295177   1924.739  800517681  0.000e+00
     3.5784   3.295141   1922.996  800517691  0.000e+00
     3.5797   3.294802   1915.002  800517701  0.000e+00
     3.5836   3.294695   1907.167  800517711  0.000e+00
     3.5977   3.295534   1898.836  800517721  0.000e+00
     3.6297   3.297965   1890.759  800517731  0.000e+00
     3.6354   3.298166   1882.587  800517741  0.000e+00
     3.6373   3.298053   1874.838  800517751  0.000e+00
     3.6409   3.297824   1866.351  800517761  0.000e+00
     3.6482   3.298094   1858.360  800517771  0.000e+00
     3.6652   3.299138   1850.581  800517781  0.000e+00
     3.6719   3.299513   1843.530  800517791  0.000e+00
     3.6778   3.299743   1836.701  800517801  0.000e+00
     3.6816   3.299846   1829.567  800517811  0.000e+00
     3.6816   3.299693   1824.143  800517821  0.000e+00
     3.6799   3.299606   1824.227  800517831  0.000e+00
     3.6801   3.299635   1823.974  800517841  0.000e+00
     3.6805   3.299710   1824.280  800517851  0.000e+00
     3.6805   3.299751   1824.058  800517861  0.000e+00
     3.6811   3.299815   1823.963  800517871  0.000e+00
     3.6812   3.299838   1824.248  800517881  0.000e+00
     3.6820   3.299885   1824.227  800517891  0.000e+00
     3.6820   3.299908   1824.069  800517901  0.000e+00
     3.6825   3.299984   1824.839  800517911  0.000e+00
     3.6829   3.299966   1824.027  800517921  0.000e+00
     3.6829   3.300001   1824.523  800517931  0.000e+00
     3.6830   3.299984   1824.449  800517941  0.000e+00
     3.6825   3.299978   1824.765  800517951  0.000e+00
     3.6825   3.299931   1824.196  800517961  0.000e+00
     3.6820   3.299914   1823.984  800517971  0.000e+00
     3.6821   3.299931   1824.417  800517981  0.000e+00
     3.6820   3.299949   1824.713  800517991  0.000e+00
     3.6820   3.299920   1824.290  800518001  0.000e+00
     3.6817   3.299890   1824.227  800518011  0.000e+00
     3.6818   3.299925   1824.544  800518021  0.000e+00
     3.6820   3.299914   1824.248  800518031  0.000e+00
     3.6816   3.299873   1824.322  800518041  0.000e+00
     3.6812   3.299873   1824.871  800518051  0.000e+00
     3.6814   3.299856   1824.533  800518061  0.000e+00
     3.6812   3.299850   1824.438  800518071  0.000e+00
     3.6812   3.299850   1824.575  800518081  0.000e+00
     3.6812   3.299867   1824.786  800518091  0.000e+00
     3.6814   3.299844   1824.312  800518101  0.000e+00
     3.6810   3.299844   1824.428  800518111  0.000e+00
     3.6811   3.299832   1824.280  800518121  0.000e+00
     3.6811   3.299856   1824.723  800518131  0.000e+00
     3.6815   3.299838   1824.196  800518141  0.000e+00
     3.6810   3.299850   1824.533  800518151  0.000e+00
     3.6811   3.299867   1824.829  800518161  0.000e+00
     3.6813   3.299862   1824.744  800518171  0.000e+00
     3.6813   3.299809   1824.111  800518181  0.000e+00
     3.6810   3.299838   1824.734  800518191  0.000e+00
     3.6809   3.299821   1824.438  800518201  0.000e+00
     3.6808   3.299809   1824.449  800518211  0.000e+00
     3.6805   3.299798   1824.681  800518221  0.000e+00
     3.6805   3.299786   1824.428  800518231  0.000e+00
     3.6804   3.299803   1824.734  800518241  0.000e+00
     3.6806   3.299803   1824.734  800518251  0.000e+00
     3.6806   3.299803   1824.597  800518261  0.000e+00
     3.6804   3.299780   1824.396  800518271  0.000e+00
     3.6805   3.299803   1824.628  800518281  0.000e+00
     3.6808   3.299534   1818.106  800518291  0.000e+00
     3.6794   3.299096   1810.625  800518301  0.000e+00
     3.6812   3.298878   1803.017  800518311  0.000e+00
     3.6851   3.298818   1795.029  800518321  0.000e+00
     3.6832   3.298385   1787.137  800518331  0.000e+00
     3.6899   3.298586   1779.583  800518341  0.000e+00
     3.6898   3.298299   1771.924  800518351  0.000e+00
     3.7126   3.299749   1763.653  800518361  0.000e+00
     3.7174   3.299927   1756.301  800518371  0.000e+00
     3.7206   3.299883   1748.696  800518381  0.000e+00
     3.7232   3.299811   1741.122  800518391  0.000e+00
     3.7259   3.299722   1733.170  800518401  0.000e+00
     3.7310   3.299865   1725.956  800518411  0.000e+00
     3.7311   3.299770   1722.318  800518421  0.000e+00
     3.7306   3.299782   1722.834  800518431  0.000e+00
     3.7309   3.299858   1722.666  800518441  0.000e+00
     3.7318   3.299927   1722.824  800518451  0.000e+00
     3.7318   3.299956   1722.560  800518461  0.000e+00
     3.7321   3.300003   1722.581  800518471  0.000e+00
     3.7322   3.300009   1723.330  800518481  0.000e+00
     3.7322   3.300026   1722.845  800518491  0.000e+00
     3.7323   3.300032   1722.686  800518501  0.000e+00
     3.7325   3.300067   1723.088  800518511  0.000e+00
     3.7328   3.300067   1722.950  800518521  0.000e+00
     3.7330   3.300061   1722.381  800518531  0.000e+00
     3.7365   3.300047   1715.969  800518541  0.000e+00
     3.7056   3.296710   1707.997  800518551  0.000e+00
     3.7241   3.297805   1700.025  800518561  0.000e+00
     3.7374   3.298529   1691.716  800518571  0.000e+00
     3.7548   3.299897   1683.841  800518581  0.000e+00
     3.7594   3.300040   1675.880  800518591  0.000e+00
     3.7710   3.300770   1667.911  800518601  0.000e+00
     3.7785   3.301116   1659.899  800518611  0.000e+00
     3.7854   3.301386   1651.814  800518621  0.000e+00
     3.7920   3.301634   1643.919  800518631  0.000e+00
     3.8083   3.302765   1636.646  800518641  0.000e+00
     3.8097   3.302635   1629.395  800518651  0.000e+00
     3.8235   3.303429   1622.144  800518661  0.000e+00
     3.8181   3.303079   1620.458  800518671  0.000e+00
     3.8178   3.303079   1620.068  800518681  0.000e+00
     3.8300   3.304155   1620.437  800518691  0.000e+00
     3.8320   3.304411   1620.995  800518701  0.000e+00
     3.8324   3.304498   1620.531  800518711  0.000e+00
     3.8324   3.304539   1620.489  800518721  0.000e+00
     3.8331   3.304597   1620.521  800518731  0.000e+00
     3.8332   3.304620   1620.616  800518741  0.000e+00
     3.8326   3.304626   1620.310  800518751  0.000e+00
     3.8329   3.304649   1620.763  800518761  0.000e+00
     3.8331   3.304637   1620.194  800518771  0.000e+00
     3.8324   3.304626   1620.679  800518781  0.000e+00
     3.8322   3.304632   1620.721  800518791  0.000e+00
     3.8328   3.304620   1620.257  800518801  0.000e+00
     3.8323   3.304608   1620.573  800518811  0.000e+00
     3.8324   3.304603   1620.342  800518821  0.000e+00
     3.8324   3.304620   1620.995  800518831  0.000e+00
     3.8327   3.304620   1620.289  800518841  0.000e+00
     3.8328   3.304649   1620.499  800518851  0.000e+00
     3.8330   3.304667   1620.826  800518861  0.000e+00
     3.8331   3.304661   1620.131  800518871  0.000e+00
     3.8328   3.304649   1620.457  800518881  0.000e+00
     3.8327   3.304655   1620.984  800518891  0.000e+00
     3.8326   3.304614   1620.425  800518901  0.000e+00
     3.8323   3.304608   1620.415  800518911  0.000e+00
     3.8326   3.304620   1620.584  800518921  0.000e+00
     3.8326   3.304638   1621.068  800518931  0.000e+00
     3.8332   3.304678   1620.478  800518941  0.000e+00
     3.8338   3.304736   1620.120  800518951  0.000e+00
     3.8333   3.304702   1620.752  800518961  0.000e+00
     3.8334   3.304719   1620.710  800518971  0.000e+00
     3.8341   3.304725   1620.520  800518981  0.000e+00
     3.8351   3.304794   1620.352  800518991  0.000e+00
     3.8356   3.304882   1620.373  800519001  0.000e+00
     3.8350   3.304864   1620.815  800519011  0.000e+00
     3.8358   3.304917   1620.563  800519021  0.000e+00
     3.8359   3.304917   1620.815  800519031  0.000e+00
     3.8360   3.304952   1620.594  800519041  0.000e+00
     3.8363   3.304957   1620.289  800519051  0.000e+00
     3.8367   3.304969   1620.383  800519061  0.000e+00
     3.8370   3.305039   1620.973  800519071  0.000e+00
     3.8374   3.305039   1620.183  800519081  0.000e+00
     3.8509   3.305804   1612.954  800519091  0.000e+00
     3.8547   3.305842   1604.702  800519101  0.000e+00
     3.8607   3.306182   1597.052  800519111  0.000e+00
     3.8771   3.307221   1588.908  800519121  0.000e+00
     3.8981   3.308759   1580.384  800519131  0.000e+00
     3.9067   3.309222   1571.955  800519141  0.000e+00
     3.9211   3.310214   1564.171  800519151  0.000e+00
     3.9312   3.310939   1556.870  800519161  0.000e+00
     3.9387   3.311298   1549.075  800519171  0.000e+00
     3.9424   3.311429   1541.533  800519181  0.000e+00
     3.9477   3.311636   1534.076  800519191  0.000e+00
     3.9590   3.312320   1526.672  800519201  0.000e+00
     3.9627   3.312463   1519.057  800519211  0.000e+00
     3.9590   3.312184   1518.489  800519221  0.000e+00
     3.9604   3.312300   1518.046  800519231  0.000e+00
     3.9603   3.312358   1518.046  800519241  0.000e+00
     3.9614   3.312469   1518.341  800519251  0.000e+00
     3.9618   3.312533   1518.341  800519261  0.000e+00
     3.9623   3.312603   1518.383  800519271  0.000e+00
     3.9627   3.312632   1518.014  800519281  0.000e+00
     3.9630   3.312679   1518.667  800519291  0.000e+00
     3.9632   3.312684   1518.288  800519301  0.000e+00
     3.9634   3.312713   1518.320  800519311  0.000e+00
     3.9635   3.312602   1515.708  800519321  0.000e+00
     3.9710   3.312838   1507.663  800519331  0.000e+00
     3.9817   3.313446   1499.660  800519341  0.000e+00
     3.9932   3.314212   1491.836  800519351  0.000e+00
     4.0053   3.314897   1483.887  800519361  0.000e+00
     4.0214   3.316128   1475.958  800519371  0.000e+00
     4.0352   3.317115   1468.252  800519381  0.000e+00
     4.0513   3.318272   1460.272  800519391  0.000e+00
     4.0627   3.319073   1452.092  800519401  0.000e+00
     4.0695   3.319472   1444.218  800519411  0.000e+00
     4.0886   3.320937   1436.588  800519421  0.000e+00
     4.0851   3.320353   1429.578  800519431  0.000e+00
     4.1010   3.321329   1422.295  800519441  0.000e+00
     4.1604   3.326700   1415.317  800519451  0.000e+00
     4.1908   3.329478   1407.824  800519461  0.000e+00
     4.1899   3.329237   1400.100  800519471  0.000e+00
     4.1530   3.325369   1392.650  800519481  0.000e+00
     4.1519   3.324731   1385.021  800519491  0.000e+00
     4.1639   3.325358   1377.373  800519501  0.000e+00
     4.1827   3.326592   1370.165  800519511  0.000e+00
     4.1843   3.326742   1365.683  800519521  0.000e+00
     4.1908   3.327401   1366.326  800519531  0.000e+00
     4.1918   3.327546   1366.104  800519541  0.000e+00
     4.1931   3.327692   1365.735  800519551  0.000e+00
     4.1930   3.327768   1366.450  800519561  0.000e+00
     4.1940   3.327832   1366.176  800519571  0.000e+00
     4.1936   3.327832   1366.029  800519581  0.000e+00
     4.1932   3.327814   1365.777  800519591  0.000e+00
     4.1929   3.327838   1366.555  800519601  0.000e+00
     4.1928   3.327809   1366.050  800519611  0.000e+00
     4.1933   3.327826   1366.092  800519621  0.000e+00
     4.1959   3.327919   1363.462  800519631  0.000e+00
     4.2102   3.328890   1355.488  800519641  0.000e+00
     4.2657   3.333384   1347.704  800519651  0.000e+00
     4.3553   3.341838   1339.403  800519661  0.000e+00
     4.3941   3.345668   1331.725  800519671  0.000e+00
     4.4145   3.347745   1324.426  800519681  0.000e+00
     4.4229   3.348415   1316.349  800519691  0.000e+00
     4.4309   3.348961   1307.936  800519701  0.000e+00
     4.4478   3.350157   1300.238  800519711  0.000e+00
     4.4338   3.348577   1292.739  800519721  0.000e+00
     4.3900   3.344122   1284.706  800519731  0.000e+00
     4.4037   3.344639   1276.652  800519741  0.000e+00
     4.4405   3.347645   1268.767  800519751  0.000e+00
     4.4629   3.349419   1261.387  800519761  0.000e+00
     4.5080   3.353246   1253.217  800519771  0.000e+00
     4.5221   3.354466   1245.733  800519781  0.000e+00
     4.5511   3.356943   1238.165  800519791  0.000e+00
     4.5673   3.358321   1230.933  800519801  0.000e+00
     4.5835   3.359729   1223.375  800519811  0.000e+00
     4.5892   3.360043   1215.955  800519821  0.000e+00
     4.5825   3.359604   1214.820  800519831  0.000e+00
     4.5826   3.359609   1214.294  800519841  0.000e+00
     4.5775   3.359112   1215.018  800519851  0.000e+00
     4.5757   3.358901   1214.829  800519861  0.000e+00
     4.5753   3.358895   1214.724  800519871  0.000e+00
     4.5751   3.358837   1214.934  800519881  0.000e+00
     4.5755   3.358919   1214.724  800519891  0.000e+00
     4.5750   3.358866   1214.733  800519901  0.000e+00
     4.5752   3.358884   1215.048  800519911  0.000e+00
     4.5753   3.358884   1215.027  800519921  0.000e+00
     4.5752   3.358854   1214.426  800519931  0.000e+00
     4.5830   3.359362   1209.919  800519941  0.000e+00
     4.5745   3.358119   1201.984  800519951  0.000e+00
     4.5991   3.359655   1193.955  800519961  0.000e+00
     4.6110   3.360261   1185.633  800519971  0.000e+00
     4.6764   3.365433   1177.438  800519981  0.000e+00
     4.7298   3.370866   1169.546  800519991  0.000e+00
     4.7688   3.374215   1161.498  800520001  0.000e+00
     4.8440   3.380891   1152.821  800520011  0.000e+00
     4.9254   3.388988   1144.636  800520021  0.000e+00
     4.9815   3.394348   1137.736  800520031  0.000e+00
     4.9856   3.394886   1130.602  800520041  0.000e+00
     5.0688   3.402378   1123.136  800520051  0.000e+00
     5.0776   3.403523   1115.793  800520061  0.000e+00
     5.0761   3.403639   1113.063  800520071  0.000e+00
     5.0826   3.404375   1113.008  800520081  0.000e+00
     5.0891   3.405157   1113.323  800520091  0.000e+00
     5.0921   3.405622   1113.050  800520101  0.000e+00
     5.0948   3.405898   1112.660  800520111  0.000e+00
     5.0867   3.405328   1113.542  800520121  0.000e+00
     5.0849   3.405169   1113.248  800520131  0.000e+00
     5.0864   3.405286   1112.921  800520141  0.000e+00
     5.0855   3.405257   1112.900  800520151  0.000e+00
     5.0873   3.405404   1113.068  800520161  0.000e+00
     5.0853   3.405257   1113.370  800520171  0.000e+00
     5.0910   3.405615   1109.842  800520181  0.000e+00
     5.1157   3.407412   1101.512  800520191  0.000e+00
     5.1466   3.409905   1093.468  800520201  0.000e+00
     5.2042   3.414641   1084.908  800520211  0.000e+00
     5.2531   3.419203   1076.844  800520221  0.000e+00
     5.3072   3.424163   1068.361  800520231  0.000e+00
     5.3197   3.425227   1059.899  800520241  0.000e+00
     5.3764   3.430232   1051.605  800520251  0.000e+00
     5.4305   3.435050   1043.383  800520261  0.000e+00
     5.5012   3.441880   1036.686  800520271  0.000e+00
     5.5403   3.445541   1029.263  800520281  0.000e+00
     5.5660   3.447938   1022.063  800520291  0.000e+00
     5.5925   3.450637   1014.598  800520301  0.000e+00
     5.6287   3.453787   1007.840  800520311  0.000e+00
     5.7029   3.460560   1000.271  800520321  0.000e+00
     5.7285   3.463157    992.526  800520331  0.000e+00
     5.7468   3.464765    984.950  800520341  0.000e+00
     5.8086   3.470361    976.774  800520351  0.000e+00
     5.8424   3.473387    969.249  800520361  0.000e+00
     5.8866   3.477506    961.871  800520371  0.000e+00
     5.9360   3.481976    954.036  800520381  0.000e+00
     5.9764   3.485862    946.428  800520391  0.000e+00
     5.9609   3.484727    943.994  800520401  0.000e+00
     5.9678   3.485451    943.751  800520411  0.000e+00
     5.9723   3.486104    944.052  800520421  0.000e+00
     5.9725   3.486265    944.766  800520431  0.000e+00
     5.9812   3.487102    943.977  800520441  0.000e+00
     5.9878   3.487749    943.460  800520451  0.000e+00
     5.9878   3.487802    943.943  800520461  0.000e+00
     5.9947   3.488515    943.972  800520471  0.000e+00
     5.9929   3.488426    944.202  800520481  0.000e+00
     5.9939   3.488521    944.336  800520491  0.000e+00
     5.9991   3.488978    943.980  800520501  0.000e+00
     5.9976   3.488925    943.925  800520511  0.000e+00
     6.0095   3.489464    941.310  800520521  0.000e+00
     6.0581   3.493828    934.009  800520531  0.000e+00
     6.0672   3.494491    926.150  800520541  0.000e+00
     6.1620   3.502901    918.556  800520551  0.000e+00
     6.2345   3.509384    910.963  800520561  0.000e+00
     6.2668   3.512710    903.474  800520571  0.000e+00
     6.3162   3.516775    895.449  800520581  0.000e+00
     6.3646   3.521516    887.710  800520591  0.000e+00
     6.4353   3.527869    880.448  800520601  0.000e+00
     6.4516   3.529639    872.891  800520611  0.000e+00
     6.5466   3.538219    864.867  800520621  0.000e+00
     6.5491   3.538827    859.730  800520631  0.000e+00
     6.5352   3.538080    859.905  800520641  0.000e+00
     6.5350   3.538248    860.710  800520651  0.000e+00
     6.5415   3.538857    859.934  800520661  0.000e+00
     6.5720   3.541706    860.088  800520671  0.000e+00
     6.5760   3.542429    859.795  800520681  0.000e+00
     6.5753   3.542441    860.578  800520691  0.000e+00
     6.5794   3.542847    860.410  800520701  0.000e+00
     6.5804   3.542954    859.936  800520711  0.000e+00
     6.5712   3.542172    860.279  800520721  0.000e+00
     6.5762   3.542590    860.258  800520731  0.000e+00
     6.6490   3.549013    853.702  800520741  0.000e+00
     6.7095   3.554225    845.231  800520751  0.000e+00
     6.5825   3.541268    837.264  800520761  0.000e+00
     6.7746   3.558468    828.886  800520771  0.000e+00
     6.7834   3.558961    820.130  800520781  0.000e+00
     6.8767   3.566833    812.898  800520791  0.000e+00
     6.9169   3.570438    805.443  800520801  0.000e+00
     7.0012   3.578487    798.212  800520811  0.000e+00
     7.0149   3.579847    790.645  800520821  0.000e+00
     7.0414   3.582142    783.087  800520831  0.000e+00
     7.1416   3.590803    775.605  800520841  0.000e+00
     7.1869   3.595024    768.683  800520851  0.000e+00
     7.2484   3.600720    761.055  800520861  0.000e+00
     7.2700   3.602425    753.372  800520871  0.000e+00
     7.3322   3.607608    745.745  800520881  0.000e+00
     7.4055   3.614288    738.985  800520891  0.000e+00
     7.4295   3.616333    730.918  800520901  0.000e+00
     7.4882   3.621741    723.425  800520911  0.000e+00
     7.8772   3.659588    715.807  800520921  0.000e+00
     7.9773   3.671698    708.014  800520931  0.000e+00
     7.8762   3.662703    706.723  800520941  0.000e+00
     7.9637   3.671595    707.295  800520951  0.000e+00
     7.9726   3.673607    707.379  800520961  0.000e+00
     7.9850   3.675238    706.891  800520971  0.000e+00
     7.9836   3.675390    707.184  800520981  0.000e+00
     7.9792   3.675202    707.107  800520991  0.000e+00
     7.9795   3.675414    707.219  800521001  0.000e+00
     7.9764   3.675087    707.184  800521011  0.000e+00
     7.9775   3.675317    707.191  800521021  0.000e+00
     7.9792   3.675566    707.323  800521031  0.000e+00
     7.9840   3.676075    706.974  800521041  0.000e+00
     7.9858   3.676226    707.149  800521051  0.000e+00
     7.9853   3.676239    707.274  800521061  0.000e+00
     7.9869   3.676445    707.016  800521071  0.000e+00
     7.9864   3.676414    707.190  800521081  0.000e+00
     7.9875   3.676536    707.253  800521091  0.000e+00
     7.9882   3.676603    707.609  800521101  0.000e+00
     7.9937   3.677118    706.764  800521111  0.000e+00
     7.9938   3.677209    707.225  800521121  0.000e+00
     7.9937   3.677215    707.546  800521131  0.000e+00
     7.9943   3.677257    707.511  800521141  0.000e+00
     7.9942   3.677294    707.239  800521151  0.000e+00
     7.9943   3.677288    707.015  800521161  0.000e+00
     7.9941   3.677257    707.141  800521171  0.000e+00
     7.9946   3.677312    707.043  800521181  0.000e+00
     7.9950   3.677354    707.447  800521191  0.000e+00
     7.9965   3.677292    703.740  800521201  0.000e+00
     8.1185   3.687877    695.926  800521211  0.000e+00
     8.1203   3.688177    688.099  800521221  0.000e+00
     8.1958   3.694740    681.104  800521231  0.000e+00
     8.1517   3.691448    680.985  800521241  0.000e+00
     8.1576   3.691952    681.383  800521251  0.000e+00
     8.1522   3.691545    681.320  800521261  0.000e+00
     8.1521   3.691630    681.445  800521271  0.000e+00
     8.1733   3.693470    681.201  800521281  0.000e+00
     8.2000   3.695955    680.782  800521291  0.000e+00
     8.1998   3.696137    681.354  800521301  0.000e+00
     8.2038   3.696636    681.528  800521311  0.000e+00
     8.2053   3.696854    680.885  800521321  0.000e+00
     8.2045   3.696800    680.774  800521331  0.000e+00
     8.2363   3.699282    673.450  800521341  0.000e+00
     8.3043   3.705402    665.764  800521351  0.000e+00
     8.3555   3.709871    658.085  800521361  0.000e+00
     8.3987   3.713568    650.023  800521371  0.000e+00
     8.4909   3.721160    642.323  800521381  0.000e+00
     8.5433   3.725989    634.241  800521391  0.000e+00
     8.6190   3.732072    626.285  800521401  0.000e+00
     8.7185   3.740820    618.817  800521411  0.000e+00
     8.7663   3.745776    610.763  800521421  0.000e+00
     8.7841   3.747600    605.572  800521431  0.000e+00
     8.7720   3.746977    605.530  800521441  0.000e+00
     8.7746   3.747368    605.745  800521451  0.000e+00
     8.7876   3.748676    606.185  800521461  0.000e+00
     8.7901   3.748969    605.521  800521471  0.000e+00
     8.7912   3.749232    605.967  800521481  0.000e+00
     8.7912   3.749275    605.863  800521491  0.000e+00
     8.7910   3.749312    605.946  800521501  0.000e+00
     8.7907   3.749324    605.632  800521511  0.000e+00
     8.7914   3.749410    606.231  800521521  0.000e+00
     8.7905   3.749367    605.902  800521531  0.000e+00
     8.8036   3.750135    600.585  800521541  0.000e+00
     8.8813   3.756526    592.966  800521551  0.000e+00
     9.0134   3.769056    584.892  800521561  0.000e+00
     9.0780   3.775351    577.022  800521571  0.000e+00
     9.1075   3.778271    569.216  800521581  0.000e+00
     9.1536   3.782720    561.206  800521591  0.000e+00
     9.2064   3.787722    552.904  800521601  0.000e+00
     9.2588   3.792887    545.538  800521611  0.000e+00
     9.3649   3.802927    537.676  800521621  0.000e+00
     9.4207   3.808795    529.997  800521631  0.000e+00
     9.4549   3.812520    522.973  800521641  0.000e+00
     9.4704   3.814000    516.179  800521651  0.000e+00
     9.4654   3.813309    508.920  800521661  0.000e+00
     9.4528   3.811590    501.918  800521671  0.000e+00
     9.5300   3.818128    494.476  800521681  0.000e+00
     9.5699   3.822416    486.737  800521691  0.000e+00
     9.5843   3.823836    479.213  800521701  0.000e+00
     9.6132   3.826624    472.059  800521711  0.000e+00
     9.6612   3.831040    464.473  800521721  0.000e+00
     9.6720   3.832017    457.327  800521731  0.000e+00
     9.6622   3.831357    456.245  800521741  0.000e+00
     9.6655   3.831764    455.973  800521751  0.000e+00
     9.6707   3.832226    456.146  800521761  0.000e+00
     9.6761   3.832905    456.125  800521771  0.000e+00
     9.6757   3.832886    456.011  800521781  0.000e+00
     9.6755   3.832997    456.345  800521791  0.000e+00
     9.6753   3.833003    456.366  800521801  0.000e+00
     9.6757   3.833028    456.288  800521811  0.000e+00
     9.6748   3.832960    455.996  800521821  0.000e+00
     9.6753   3.833059    456.279  800521831  0.000e+00
     9.6746   3.832979    456.362  800521841  0.000e+00
     9.6744   3.832979    456.493  800521851  0.000e+00
     9.6749   3.833009    455.803  800521861  0.000e+00
     9.6755   3.833053    456.222  800521871  0.000e+00
     9.6749   3.833040    456.431  800521881  0.000e+00
     9.6753   3.833090    456.583  800521891  0.000e+00
     9.6753   3.833040    456.185  800521901  0.000e+00
     9.6750   3.832991    456.092  800521911  0.000e+00
     9.6742   3.832979    456.128  800521921  0.000e+00
     9.6745   3.833016    456.573  800521931  0.000e+00
     9.6746   3.833003    456.406  800521941  0.000e+00
     9.6743   3.832954    456.056  800521951  0.000e+00
     9.6744   3.832935    456.139  800521961  0.000e+00
     9.6732   3.832930    456.829  800521971  0.000e+00
     9.6738   3.832923    456.668  800521981  0.000e+00
     9.6738   3.832972    456.103  800521991  0.000e+00
     9.6732   3.832874    456.333  800522001  0.000e+00
     9.6730   3.832843    456.694  800522011  0.000e+00
     9.6717   3.832775    456.568  800522021  0.000e+00
     9.6728   3.832794    456.108  800522031  0.000e+00
     9.6723   3.832769    456.197  800522041  0.000e+00
     9.6715   3.832745    456.888  800522051  0.000e+00
     9.6720   3.832701    456.574  800522061  0.000e+00
     9.6715   3.832689    456.412  800522071  0.000e+00
     9.6712   3.832646    456.538  800522081  0.000e+00
     9.6709   3.832634    456.574  800522091  0.000e+00
     9.6708   3.832597    456.731  800522101  0.000e+00
     9.6704   3.832584    456.496  800522111  0.000e+00
     9.6700   3.832541    456.579  800522121  0.000e+00
     9.6696   3.832504    456.292  800522131  0.000e+00
     9.6695   3.832486    456.459  800522141  0.000e+00
     9.6698   3.832492    456.349  800522151  0.000e+00
     9.6692   3.832467    456.459  800522161  0.000e+00
     9.6693   3.832448    456.208  800522171  0.000e+00
     9.6684   3.832381    456.815  800522181  0.000e+00
     9.6688   3.832405    456.151  800522191  0.000e+00
     9.6688   3.832405    456.418  800522201  0.000e+00
     9.6687   3.832399    456.486  800522211  0.000e+00
     9.6688   3.832399    456.480  800522221  0.000e+00
     9.6685   3.832412    456.381  800522231  0.000e+00
     9.6687   3.832418    456.632  800522241  0.000e+00
     9.6689   3.832405    456.219  800522251  0.000e+00
     9.6688   3.832399    456.512  800522261  0.000e+00
     9.6684   3.832368    456.548  800522271  0.000e+00
     9.6680   3.832350    456.470  800522281  0.000e+00
     9.6884   3.833642    448.837  800522291  0.000e+00
     9.7629   3.840343    440.535  800522301  0.000e+00
     9.8113   3.844419    432.756  800522311  0.000e+00
     9.8938   3.852036    424.496  800522321  0.000e+00
     9.9442   3.857075    416.420  800522331  0.000e+00
     9.9909   3.861177    408.246  800522341  0.000e+00
    10.0471   3.866555    401.331  800522351  0.000e+00
    10.0903   3.870822    394.098  800522361  0.000e+00
    10.0688   3.868555    387.388  800522371  0.000e+00
    10.0844   3.869740    379.925  800522381  0.000e+00
    10.0678   3.867621    372.259  800522391  0.000e+00
    10.1234   3.872780    365.278  800522401  0.000e+00
    10.2515   3.886264    357.655  800522411  0.000e+00
    10.2413   3.885742    353.893  800522421  0.000e+00
    10.2345   3.885420    354.102  800522431  0.000e+00
    10.2290   3.884986    353.956  800522441  0.000e+00
    10.2353   3.885847    353.998  800522451  0.000e+00
    10.2355   3.885897    354.442  800522461  0.000e+00
    10.2353   3.885916    354.405  800522471  0.000e+00
    10.2330   3.885680    354.238  800522481  0.000e+00
    10.2293   3.885289    353.825  800522491  0.000e+00
    10.2305   3.885488    354.180  800522501  0.000e+00
    10.2293   3.885302    354.055  800522511  0.000e+00
    10.2294   3.885339    354.494  800522521  0.000e+00
    10.2286   3.885115    352.090  800522531  0.000e+00
    10.2502   3.886780    343.715  800522541  0.000e+00
    10.1951   3.880151    335.607  800522551  0.000e+00
    10.0329   3.861789    327.228  800522561  0.000e+00
    10.0615   3.862813    319.523  800522571  0.000e+00
    10.1109   3.866484    311.541  800522581  0.000e+00
    10.1383   3.868127    304.714  800522591  0.000e+00
    10.1341   3.867842    303.456  800522601  0.000e+00
    10.1194   3.866790    303.711  800522611  0.000e+00
    10.1243   3.867062    303.461  800522621  0.000e+00
    10.1298   3.867570    303.774  800522631  0.000e+00
    10.1318   3.867743    303.565  800522641  0.000e+00
    10.1333   3.867891    303.695  800522651  0.000e+00
    10.1333   3.867891    303.294  800522661  0.000e+00
    10.1338   3.867966    303.711  800522671  0.000e+00
    10.1330   3.867935    303.716  800522681  0.000e+00
    10.1357   3.868095    303.278  800522691  0.000e+00
    10.1405   3.868179    296.279  800522701  0.000e+00
    10.2485   3.877871    288.424  800522711  0.000e+00
    10.3623   3.888968    280.215  800522721  0.000e+00
    10.5008   3.903474    272.361  800522731  0.000e+00
    10.6018   3.914495    263.802  800522741  0.000e+00
    10.6635   3.922137    255.699  800522751  0.000e+00
    10.7123   3.926933    249.057  800522761  0.000e+00
    10.7694   3.932585    241.544  800522771  0.000e+00
    10.8135   3.936906    234.585  800522781  0.000e+00
    10.8367   3.939085    227.094  800522791  0.000e+00
    10.8578   3.940939    219.765  800522801  0.000e+00
    10.8872   3.943755    212.128  800522811  0.000e+00
    10.9546   3.950258    203.918  800522821  0.000e+00
    10.9555   3.950555    196.762  800522831  0.000e+00
    11.0096   3.955596    188.922  800522841  0.000e+00
    11.0538   3.959790    181.281  800522851  0.000e+00
    11.0671   3.961186    173.996  800522861  0.000e+00
    11.0921   3.963339    165.877  800522871  0.000e+00
    11.1217   3.966098    158.280  800522881  0.000e+00
    11.1400   3.967708    150.854  800522891  0.000e+00
    11.2161   3.974872    143.075  800522901  0.000e+00
    11.2851   3.982486    135.374  800522911  0.000e+00
    11.3213   3.986522    127.741  800522921  0.000e+00
    11.3076   3.984897    120.171  800522931  0.000e+00
    11.3079   3.984506    112.076  800522941  0.000e+00
    11.3075   3.983864    104.965  800522951  0.000e+00
    11.2899   3.981069     97.204  800522961  0.000e+00
    11.3125   3.982900     89.844  800522971  0.000e+00
    11.2922   3.980043     82.339  800522981  0.000e+00
    11.3150   3.981824     75.376  800522991  0.000e+00
    11.3145   3.980851     68.555  800523001  0.000e+00
    11.3267   3.980879     61.134  800523011  0.000e+00
    11.3361   3.981377     53.688  800523021  0.000e+00
    11.3968   3.986139     46.434  800523031  0.000e+00
    11.4646   3.991179     38.510  800523041  0.000e+00
    11.5947   4.001998     31.090  800523051  0.000e+00
    11.5940   4.003604     31.052  800523061  0.000e+00
    11.7001   4.012838     30.760  800523071  0.000e+00
    11.6900   4.012311     30.927  800523081  0.000e+00
    11.6873   4.012763     31.140  800523091  0.000e+00
    11.6645   4.010653     30.681  800523101  0.000e+00
    11.6686   4.010942     30.998  800523111  0.000e+00
    11.6626   4.010609     31.227  800523121  0.000e+00
    11.6572   4.010258     31.151  800523131  0.000e+00
    11.6744   4.011633     30.734  800523141  0.000e+00
    11.7894   4.021464     28.920  800523151  0.000e+00
    11.9931   4.040326     27.235  800523161  0.000e+00
    12.0969   4.050305     25.025  800523171  0.000e+00
    12.1111   4.052436     23.069  800523181  0.000e+00
    12.1419   4.055361     20.654  800523191  0.000e+00
    12.2190   4.062888     18.714  800523201  0.000e+00
    12.2678   4.067817     14.089  800523211  0.000e+00
    12.3505   4.075863      7.400  800523221  0.000e+00
    12.3521   4.076962      5.628  800523231  0.000e+00
    12.3597   4.077866      5.006  800523241  0.000e+00
    12.3598   4.078233      5.444  800523251  0.000e+00
    12.3587   4.078353      5.427  800523261  0.000e+00
    12.3556   4.078195      5.531  800523271  0.000e+00
    12.3578   4.078410      5.455  800523281  0.000e+00
    12.3570   4.078435      5.393  800523291  0.000e+00
    12.3570   4.078486      5.288  800523301  0.000e+00
    12.3593   4.078720      5.292  800523311  0.000e+00
    12.3591   4.078726      5.341  800523321  0.000e+00
    12.3700   4.079477      1.171  800523331  0.000e+00
    12.3687   2.919853      1.029  800523341  0.000e+00
    12.3745   2.091159      0.946  800523351  0.000e+00
    12.3747   2.032894      0.949  800523361  0.000e+00
    12.3771   1.991139      0.970  800523371  0.000e+00
    12.3790   2.071768      0.890  800523381  0.000e+00
    12.3862   2.073185      0.956  800523391  0.000e+00
    12.4007   2.073661      1.040  800523401  0.000e+00
    12.4141   2.063004      0.960  800523411  0.000e+00
    12.4316   0.002229      0.960  800523421  0.000e+00
    12.4401   0.001303      1.026  800523431  0.000e+00
    12.4501   0.001183      1.068  800523441  0.000e+00
    12.4627   0.001060      1.005  800523451  0.000e+00
    12.4859   0.000951      1.030  800523461  0.000e+00
    12.5025   0.000809      1.009  800523471  0.000e+00
    12.5186   0.000940      1.075  800523481  0.000e+00
    12.5367   0.000929      1.012  800523491  0.000e+00
    12.5444   0.000915      0.974  800523501  0.000e+00
    12.5651   0.000907      1.058  800523511  0.000e+00
    12.5938   0.000901      1.019  800523521  0.000e+00
    12.6198   0.000907      1.124  800523531  0.000e+00
    12.6362   0.000890      1.144  800523541  0.000e+00
    12.6484   0.000868      1.106  800523551  0.000e+00
    12.6612   0.000862      1.085  800523561  0.000e+00
    12.6833   0.000857      1.151  800523571  0.000e+00
    12.7034   0.000851      1.089  800523581  0.000e+00
    12.7174   0.000848      1.089  800523591  0.000e+00
    12.7391   0.000843      1.047  800523601  0.000e+00
    12.7534   0.000840      1.092  800523611  0.000e+00
    12.7766   0.000840      1.155  800523621  0.000e+00
    12.8024   0.000834      1.075  800523631  0.000e+00
    12.8261   0.000834      1.179  800523641  0.000e+00
    12.8441   0.000820      1.117  800523651  0.000e+00
    12.8623   0.000728      1.099  800523661  0.000e+00
    12.8847   0.000703      1.099  800523671  0.000e+00
    12.9085   0.000703      1.144  800523681  0.000e+00
    12.9256   0.000697      1.203  800523691  0.000e+00
    12.9394   0.000697      1.228  800523701  0.000e+00
    12.9580   0.000695      1.148  800523711  0.000e+00
    12.9723   0.000692      1.273  800523721  0.000e+00
    12.9862   0.000689      1.127  800523731  0.000e+00
    12.9961   0.000686      1.127  800523741  0.000e+00
    13.0072   0.000686      1.088  800523751  0.000e+00
    13.0224   0.000683      1.151  800523761  0.000e+00
    13.0371   0.000681      1.092  800523771  0.000e+00
    13.0513   0.000681      1.279  800523781  0.000e+00
    13.0683   0.000680      1.050  800523791  0.000e+00
    13.0803   0.000678      1.178  800523801  0.000e+00
    13.0933   0.000675      1.158  800523811  0.000e+00
    13.1022   0.000675      1.095  800523821  0.000e+00
    13.1134   0.000672      1.241  800523831  0.000e+00
    13.1245   0.000672      1.137  800523841  0.000e+00
    13.1349   0.000672      1.178  800523851  0.000e+00
    13.1442   0.000672      1.161  800523861  0.000e+00
    13.1572   0.000669      1.182  800523871  0.000e+00
    13.1710   0.000669      1.182  800523881  0.000e+00
    13.1863   0.000669      1.185  800523891  0.000e+00
    13.2009   0.000669      1.123  800523901  0.000e+00
    13.2106   0.000664      1.143  800523911  0.000e+00
    13.2159   0.000664      1.084  800523921  0.000e+00
    13.2272   0.000664      1.102  800523931  0.000e+00
    13.2342   0.000661      1.167  800523941  0.000e+00
    13.2428   0.000664      1.209  800523951  0.000e+00
    13.2566   0.000661      1.167  800523961  0.000e+00
    13.2608   0.000661      1.233  800523971  0.000e+00
    13.2637   0.000661      1.230  800523981  0.000e+00
    13.2724   0.000658      1.129  800523991  0.000e+00
    13.2850   0.000658      1.171  800524001  0.000e+00
    13.2981   0.000655      1.254  800524011  0.000e+00
    13.3033   0.000655      1.153  800524021  0.000e+00
    13.3138   0.000652      1.156  800524031  0.000e+00
    13.3236   0.000652      1.111  800524041  0.000e+00
    13.3308   0.000650      1.195  800524051  0.000e+00
    13.3410   0.000650      1.195  800524061  0.000e+00
    13.3529   0.000647      1.156  800524071  0.000e+00
    13.3625   0.000647      1.177  800524081  0.000e+00
    13.3674   0.000644      1.156  800524091  0.000e+00
    13.3732   0.000644      1.118  800524101  0.000e+00
    13.3826   0.000644      1.135  800524111  0.000e+00
    13.3944   0.000641      1.097  800524121  0.000e+00
    13.4018   0.000641      1.201  800524131  0.000e+00
    13.4107   0.000641      1.097  800524141  0.000e+00
    13.4189   0.000641      1.201  800524151  0.000e+00
    13.4247   0.000641      1.097  800524161  0.000e+00
    13.4313   0.000638      1.142  800524171  0.000e+00
    13.4426   0.000638      1.079  800524181  0.000e+00
    13.4491   0.000638      1.225  800524191  0.000e+00
    13.4565   0.000638      1.142  800524201  0.000e+00
    13.4594   0.000636      1.204  800524211  0.000e+00
    13.4633   0.000636      1.166  800524221  0.000e+00
    13.4717   0.000633      1.062  800524231  0.000e+00
    13.4795   0.000633      1.228  800524241  0.000e+00
    13.4853   0.000633      1.124  800524251  0.000e+00
    13.4940   0.000630      1.106  800524261  0.000e+00
    13.4973   0.000630      1.086  800524271  0.000e+00
    13.5011   0.000630      1.187  800524281  0.000e+00
    13.5060   0.000630      1.211  800524291  0.000e+00
    13.5102   0.000630      1.148  800524301  0.000e+00
    13.5191   0.000630      1.148  800524311  0.000e+00
    13.5254   0.000627      1.151  800524321  0.000e+00
    13.5309   0.000627      1.068  800524331  0.000e+00
    13.5417   0.000627      1.130  800524341  0.000e+00
    13.5424   0.000627      1.172  800524351  0.000e+00
    13.5421   0.000624      1.130  800524361  0.000e+00
    13.5449   0.000624      1.026  800524371  0.000e+00
    13.5477   0.000624      1.130  800524381  0.000e+00
    13.5488   0.000624      1.113  800524391  0.000e+00
    13.5578   0.000622      1.154  800524401  0.000e+00
    13.5644   0.000622      1.154  800524411  0.000e+00
    13.5688   0.000619      1.154  800524421  0.000e+00
    13.5698   0.000622      1.029  800524431  0.000e+00
    13.5738   0.000619      1.175  800524441  0.000e+00
    13.5766   0.000616      1.095  800524451  0.000e+00
    13.5814   0.000619      1.095  800524461  0.000e+00
    13.5896   0.000619      1.119  800524471  0.000e+00
    13.5927   0.000616      1.158  800524481  0.000e+00
    13.5947   0.000619      1.056  800524491  0.000e+00
    13.5987   0.000616      1.161  800524501  0.000e+00
    13.5997   0.000616      1.137  800524511  0.000e+00
    13.6005   0.000616      1.116  800524521  0.000e+00
    13.6063   0.000616      1.158  800524531  0.000e+00
    13.6104   0.000616      1.140  800524541  0.000e+00
    13.6161   0.000613      1.205  800524551  0.000e+00
    13.6192   0.000613      1.035  800524561  0.000e+00
    13.6212   0.000613      1.119  800524571  0.000e+00
    13.6195   0.000613      1.223  800524581  0.000e+00
    13.6223   0.000613      1.101  800524591  0.000e+00
    13.6272   0.000613      1.161  800524601  0.000e+00
    13.6288   0.000613      1.143  800524611  0.000e+00
    13.6301   0.000613      1.101  800524621  0.000e+00
    13.6348   0.000610      1.143  800524631  0.000e+00
    13.6415   0.000613      1.039  800524641  0.000e+00
    13.6536   0.000610      1.122  800524651  0.000e+00
    13.6590   0.000608      1.146  800524661  0.000e+00
    13.6633   0.000607      1.167  800524671  0.000e+00
    13.6645   0.000607      1.167  800524681  0.000e+00
    13.6725   0.000610      1.149  800524691  0.000e+00
    13.6794   0.000610      1.042  800524701  0.000e+00
    13.6809   0.000607      1.062  800524711  0.000e+00
    13.6856   0.000607      1.045  800524721  0.000e+00
    13.6902   0.000607      1.146  800524731  0.000e+00
    13.7036   0.000607      1.086  800524741  0.000e+00
    13.7074   0.000607      1.107  800524751  0.000e+00
    13.7061   0.000605      1.107  800524761  0.000e+00
    13.7129   0.000607      1.045  800524771  0.000e+00
    13.7203   0.000605      1.045  800524781  0.000e+00
    13.7278   0.000605      1.065  800524791  0.000e+00
    13.7286   0.000605      1.089  800524801  0.000e+00
    13.7321   0.000605      1.045  800524811  0.000e+00
    13.7357   0.000605      1.152  800524821  0.000e+00
    13.7402   0.000605      0.964  800524831  0.000e+00
    13.7435   0.000605      1.068  800524841  0.000e+00
    13.7487   0.000605      1.068  800524851  0.000e+00
    13.7513   0.000602      1.071  800524861  0.000e+00
    13.7563   0.000602      1.155  800524871  0.000e+00
    13.7623   0.000602      1.134  800524881  0.000e+00
    13.7638   0.000602      1.009  800524891  0.000e+00
    13.7656   0.000602      1.027  800524901  0.000e+00
    13.7715   0.000599      1.030  800524911  0.000e+00
    13.7746   0.000599      1.116  800524921  0.000e+00
    13.7770   0.000599      0.988  800524931  0.000e+00
    13.7808   0.000599      1.158  800524941  0.000e+00
    13.7846   0.000599      1.158  800524951  0.000e+00
    13.8156   0.000596      1.095  800524961  0.000e+00
    13.8385   0.000596      1.137  800524971  0.000e+00
    13.8268   0.000596      1.074  800524981  0.000e+00
    13.8237   0.000593      1.137  800524991  0.000e+00
    13.8300   0.000591      1.095  800525001  0.000e+00
    13.8374   0.000591      1.095  800525011  0.000e+00
    13.8440   0.000588      1.158  800525021  0.000e+00
    13.8508   0.000588      1.116  800525031  0.000e+00
    13.8564   0.000585      1.077  800525041  0.000e+00
    13.8574   0.000582      1.116  800525051  0.000e+00
    13.8596   0.000579      1.036  800525061  0.000e+00
    13.8627   0.000577      1.161  800525071  0.000e+00
    13.8644   0.000577      1.203  800525081  0.000e+00
    13.8676   0.000574      1.077  800525091  0.000e+00
    13.8716   0.000571      1.119  800525101  0.000e+00
    13.8749   0.000574      1.059  800525111  0.000e+00
    13.8764   0.000577      1.143  800525121  0.000e+00
    13.8805   0.000563      1.015  800525131  0.000e+00
    13.8847   0.000507      0.976  800525141  0.000e+00
    13.8891   0.000504      0.931  800525151  0.000e+00
    13.8914   0.000501      0.997  800525161  0.000e+00
    13.8943   0.000485      0.976  800525171  0.000e+00
    13.8968   0.000482      0.955  800525181  0.000e+00
    13.8998   0.000479      1.018  800525191  0.000e+00
    13.9021   0.000479      1.059  800525201  0.000e+00
    13.9061   0.000479      0.979  800525211  0.000e+00
    13.9089   0.000473      0.958  800525221  0.000e+00
    13.9116   0.000473      0.934  800525231  0.000e+00
    13.9140   0.000471      0.958  800525241  0.000e+00
    13.9172   0.000473      0.958  800525251  0.000e+00
    13.9172   0.000471      0.896  800525261  0.000e+00
    13.9181   0.000468      1.021  800525271  0.000e+00
    13.9227   0.000471      0.937  800525281  0.000e+00
    13.9302   0.000468      0.979  800525291  0.000e+00
    13.9359   0.000468      0.958  800525301  0.000e+00
    13.9402   0.000468      0.916  800525311  0.000e+00
    13.9454   0.000468      0.958  800525321  0.000e+00
    13.9499   0.000468      0.940  800525331  0.000e+00
    13.9535   0.000465      0.958  800525341  0.000e+00
    13.9547   0.000465      1.000  800525351  0.000e+00
    13.9572   0.000465      0.982  800525361  0.000e+00
    13.9608   0.000465      0.982  800525371  0.000e+00
    13.9651   0.000465      0.919  800525381  0.000e+00
    13.9682   0.000465      0.711  800525391  0.000e+00
    13.9726   0.000462      0.922  800525401  0.000e+00
    13.9760   0.000462      0.899  800525411  0.000e+00
    13.9814   0.000462      0.961  800525421  0.000e+00
    13.9868   0.000462      0.901  800525431  0.000e+00
    13.9890   0.000462      0.839  800525441  0.000e+00
    13.9935   0.000462      0.881  800525451  0.000e+00
    13.9977   0.000459      0.881  800525461  0.000e+00
    14.0030   0.000459      0.881  800525471  0.000e+00
    14.0089   0.000457      0.922  800525481  0.000e+00
    14.0140   0.000459      0.901  800525491  0.000e+00
    14.0194   0.000457      0.967  800525501  0.000e+00
    14.0244   0.000457      0.800  800525511  0.000e+00
    14.0302   0.000454      0.821  800525521  0.000e+00
    14.0353   0.000454      0.863  800525531  0.000e+00
    14.0400   0.000454      0.967  800525541  0.000e+00
    14.0415   0.000451      0.821  800525551  0.000e+00
    14.0479   0.000451      0.758  800525561  0.000e+00
    14.0527   0.000451      0.865  800525571  0.000e+00
    14.0568   0.000451      0.865  800525581  0.000e+00
    14.0620   0.000451      0.758  800525591  0.000e+00
    14.0662   0.000448      0.907  800525601  0.000e+00
    14.0704   0.000451      0.904  800525611  0.000e+00
    14.0744   0.000448      0.803  800525621  0.000e+00
    14.0800   0.000448      0.821  800525631  0.000e+00
    14.0796   0.000448      0.845  800525641  0.000e+00
    14.0833   0.000448      0.847  800525651  0.000e+00
    14.0885   0.000448      0.845  800525661  0.000e+00
    14.0937   0.000448      0.824  800525671  0.000e+00
    14.0986   0.000448      0.907  800525681  0.000e+00
    14.1024   0.000448      0.845  800525691  0.000e+00
    14.1075   0.000445      0.847  800525701  0.000e+00
    14.1115   0.000448      0.868  800525711  0.000e+00
    14.1165   0.000445      0.845  800525721  0.000e+00
    14.1196   0.000448      0.824  800525731  0.000e+00
    14.1229   0.000448      0.806  800525741  0.000e+00
    14.1274   0.000445      0.764  800525751  0.000e+00
    14.1317   0.000448      0.743  800525761  0.000e+00
    14.1366   0.000445      0.973  800525771  0.000e+00
    14.1412   0.000448      0.722  800525781  0.000e+00
    14.1454   0.000445      0.910  800525791  0.000e+00
    14.1497   0.000445      0.850  800525801  0.000e+00
    14.1549   0.000448      0.850  800525811  0.000e+00
    14.1602   0.000448      0.871  800525821  0.000e+00
    14.1641   0.000445      0.934  800525831  0.000e+00
    14.1679   0.000448      0.746  800525841  0.000e+00
    14.1739   0.000448      0.829  800525851  0.000e+00
    14.1797   0.000448      0.916  800525861  0.000e+00
    14.1866   0.000445      0.871  800525871  0.000e+00
    14.1926   0.000448      0.809  800525881  0.000e+00
    14.1987   0.000445      0.811  800525891  0.000e+00
    14.2041   0.000448      0.728  800525901  0.000e+00
    14.2073   0.000445      0.767  800525911  0.000e+00
    14.2143   0.000445      0.811  800525921  0.000e+00
    14.2202   0.000445      0.934  800525931  0.000e+00
    14.2236   0.000448      0.790  800525941  0.000e+00
    14.2265   0.000445      0.770  800525951  0.000e+00
    14.2313   0.000445      0.790  800525961  0.000e+00
    14.2365   0.000445      0.853  800525971  0.000e+00
    14.2423   0.000445      0.835  800525981  0.000e+00
    14.2480   0.000445      0.731  800525991  0.000e+00
    14.2538   0.000448      0.832  800526001  0.000e+00
    14.2600   0.000445      0.770  800526011  0.000e+00
    14.2638   0.000445      0.793  800526021  0.000e+00
    14.2689   0.000445      0.752  800526031  0.000e+00
    14.2750   0.000445      0.647  800526041  0.000e+00
    14.2814   0.000445      0.814  800526051  0.000e+00
    14.2881   0.000445      0.921  800526061  0.000e+00
    14.2933   0.000445      0.796  800526071  0.000e+00
    14.2992   0.000445      0.859  800526081  0.000e+00
    14.3048   0.000445      0.838  800526091  0.000e+00
    14.3103   0.000445      0.879  800526101  0.000e+00
    14.3181   0.000445      0.799  800526111  0.000e+00
    14.3275   0.000445      0.817  800526121  0.000e+00
    14.3390   0.000445      0.775  800526131  0.000e+00
    14.3468   0.000445      0.796  800526141  0.000e+00
    14.3551   0.000445      0.921  800526151  0.000e+00
    14.3620   0.000445      0.900  800526161  0.000e+00
    14.3676   0.000445      0.820  800526171  0.000e+00
    14.3739   0.000445      0.817  800526181  0.000e+00
    14.3661   0.000445      0.757  800526191  0.000e+00
    14.3460   0.000451      0.757  800526201  0.000e+00
    14.3548   0.000448      0.781  800526211  0.000e+00
    14.3620   0.000451      0.757  800526221  0.000e+00
