* Sea-Bird SBE37SMP-RS232  Data File:
* FileName = C:\CE25007_recovery_data\21269_cal_dip_data.hex
* Software version SeatermV2 2.8.0.119
* Temperature SN = 21269
* Conductivity SN = 21269
* System UpLoad Time = May 14 2025 08:44:22
* sample interval = 10 seconds
* <ApplicationData>
* <Seaterm232>
* <SoftwareVersion>2.8.0.119</SoftwareVersion>
* <BuildDate>07-Nov-2018</BuildDate>
* </Seaterm232>
* </ApplicationData>
* <InstrumentState>
* <HardwareData DeviceType='SBE37SMP-RS232' SerialNumber='03721269'>
*
*    <Manufacturer>Sea-Bird Scientific</Manufacturer>
*
*    <FirmwareVersion>6.1.2</FirmwareVersion>
*
*    <FirmwareDate>Oct 19 2018 07:58:01</FirmwareDate>
*
*    <CommandSetVersion>1.3</CommandSetVersion>
*
*    <PCBAssembly SerialNum='216279' AssemblyNum='41661D'/>
*
*    <PCBAssembly SerialNum='216285' AssemblyNum='41783M'/>
*
*    <PCBAssembly SerialNum='216282' AssemblyNum='41785C'/>
*
*    <MfgDate>21Aug2019</MfgDate>
*
*    <FirmwareLoader>SBE 37-232-V3 FirmwareLoader V 1.0</FirmwareLoader>
*
*    <InternalSensors>
*
*       <Sensor id='Temperature'>
*
*          <type>temperature-1</type>
*
*          <SerialNumber>03721269</SerialNumber>
*
*       </Sensor>
*
*       <Sensor id='Conductivity'>
*
*          <type>conductivity-1</type>
*
*          <SerialNumber>03721269</SerialNumber>
*
*       </Sensor>
*
*       <Sensor id='Pressure'>
*
*          <type>strain-0</type>
*
*          <SerialNumber>5514817</SerialNumber>
*
*       </Sensor>
*
*    </InternalSensors>
*
* </HardwareData>
* <StatusData DeviceType='SBE37SMP-RS232' SerialNumber='03721269'>
*
*    <DateTime>2025-05-14T08:41:57</DateTime>
*
*    <EventSummary numEvents='2'/>
*
*    <Power>
*
*       <vMain>13.30</vMain>
*
*       <vLith> 2.98</vLith>
*
*    </Power>
*
*    <MemorySummary>
*
*       <Bytes>716775</Bytes>
*
*       <Samples>47785</Samples>
*
*       <SamplesFree>511455</SamplesFree>
*
*       <SampleLength>15</SampleLength>
*
*    </MemorySummary>
*
*    <AutonomousSampling>no, stop command</AutonomousSampling>
*
* </StatusData>
* <ConfigurationData DeviceType='SBE37SMP-RS232' SerialNumber='03721269'>
*
*    <PressureInstalled>yes</PressureInstalled>
*
*    <SampleDataFormat>not set</SampleDataFormat>
*
*    <TemperatureUnits>Celsius</TemperatureUnits>
*
*    <ConductivityUnits>S/m</ConductivityUnits>
*
*    <PressureUnits>Decibar</PressureUnits>
*
*    <OutputTemperature>yes</OutputTemperature>
*
*    <OutputConductivity>yes</OutputConductivity>
*
*    <OutputPressure>yes</OutputPressure>
*
*    <OutputSalinity>yes</OutputSalinity>
*
*    <OutputSV>no</OutputSV>
*
*    <OutputSC>no</OutputSC>
*
*    <SCCoeff>0.0200</SCCoeff>
*
*    <TxSampleNumber>no</TxSampleNumber>
*
*    <SampleInterval>10</SampleInterval>
*
*    <TxRealTime>no</TxRealTime>
*
*    <SyncMode>no</SyncMode>
*
*    <MinCondFreq>3300.0</MinCondFreq>
*
*    <LegacyMode>no</LegacyMode>
*
*    <CompatibleMode>no</CompatibleMode>
*
* </ConfigurationData>
* <CalibrationCoefficients DeviceType='SBE37SMP-RS232' SerialNumber='03721269'>
*
*    <Calibration format='TEMP1' id='Temperature'>
*
*       <SerialNum>03721269</SerialNum>
*
*       <CalDate>11-Apr-24</CalDate>
*
*       <A0>-8.365997e-05</A0>
*
*       <A1>2.995050e-04</A1>
*
*       <A2>-3.831216e-06</A2>
*
*       <A3>1.854249e-07</A3>
*
*    </Calibration>
*
*    <Calibration format='WBCOND0' id='Conductivity'>
*
*       <SerialNum>03721269</SerialNum>
*
*       <CalDate>11-Apr-24</CalDate>
*
*       <G>-1.023678e+00</G>
*
*       <H>1.440206e-01</H>
*
*       <I>-1.119791e-04</I>
*
*       <J>2.780778e-05</J>
*
*       <PCOR>-9.570000e-08</PCOR>
*
*       <TCOR>3.250000e-06</TCOR>
*
*       <WBOTC>1.562234e-07</WBOTC>
*
*    </Calibration>
*
*    <Calibration format='STRAIN0' id='Pressure'>
*
*       <SerialNum>5514817</SerialNum>
*
*       <CalDate>20-Mar-24</CalDate>
*
*       <PA0>-8.968514e+00</PA0>
*
*       <PA1>3.067141e-02</PA1>
*
*       <PA2>2.400423e-09</PA2>
*
*       <PTCA0>5.244307e+05</PTCA0>
*
*       <PTCA1>4.970807e+00</PTCA1>
*
*       <PTCA2>-7.607314e-01</PTCA2>
*
*       <PTCB0>1.010644e+02</PTCB0>
*
*       <PTCB1>-4.986057e-03</PTCB1>
*
*       <PTCB2>0.000000e+00</PTCB2>
*
*       <PTEMPA0>-1.007384e+02</PTEMPA0>
*
*       <PTEMPA1>4.176121e-02</PTEMPA1>
*
*       <PTEMPA2>9.801357e-07</PTEMPA2>
*
*       <POFFSET>0.000000e+00</POFFSET>
*
*       <PRANGE>1.015300e+04</PRANGE>
*
*    </Calibration>
*
* </CalibrationCoefficients>
* <EventCounters DeviceType='SBE37SMP-RS232' SerialNumber='03721269'>
*
*    <EventSummary numEvents='2'/>
*
*    <Event type='PON reset' count='2'/>
*
* </EventCounters></InstrumentState>
# nquan = 5
# nvalues = 1484                                  
# units = specified
# name 0 = tv290C: Temperature [ITS-90, deg C]
# name 1 = cond0S/m: Conductivity [S/m]
# name 2 = prdM: Pressure, Strain Gauge [db]
# name 3 = timeK: Time, Instrument [seconds]
# name 4 = flag:  0.000e+00
# span 0 =     2.8065,    16.0568                 
# span 1 =   0.000102,   4.088957                 
# span 2 =     -0.098,   2413.917                 
# span 3 =  800455201,  800526121                 
# span 4 = 0.0000e+00, 0.0000e+00                 
# interval = seconds: 10
# start_time = May 13 2025 12:40:01 [Instrument's time stamp, first data scan]
# bad_flag = -9.990e-29
# <Sensors count="3" >
#   <sensor Channel="1" >
#     <!-- Count, Temperature -->
#     <TemperatureSensor SensorID="58" >
#       <SerialNumber>21269</SerialNumber>
#       <CalibrationDate>11-Apr-24</CalibrationDate>
#       <A0>-8.36599700e-005</A0>
#       <A1>2.99505000e-004</A1>
#       <A2>-3.83121600e-006</A2>
#       <A3>1.85424900e-007</A3>
#       <Slope>1.00000000</Slope>
#       <Offset>0.0000</Offset>
#     </TemperatureSensor>
#   </sensor>
#   <sensor Channel="2" >
#     <!-- Frequency 0, Conductivity -->
#     <ConductivitySensor SensorID="3" >
#       <SerialNumber>21269</SerialNumber>
#       <CalibrationDate>11-Apr-24</CalibrationDate>
#       <UseG_J>1</UseG_J>
#       <!-- Cell const and series R are applicable only for wide range sensors. -->
#       <SeriesR>0.0000</SeriesR>
#       <CellConst>2000.0000</CellConst>
#       <ConductivityType>1</ConductivityType>
#       <Coefficients equation="0" >
#         <A>0.00000000e+000</A>
#         <B>0.00000000e+000</B>
#         <C>0.00000000e+000</C>
#         <D>0.00000000e+000</D>
#         <M>0.0</M>
#         <CPcor>-9.57000000e-008</CPcor>
#       </Coefficients>
#       <Coefficients equation="1" >
#         <G>-1.02367800e+000</G>
#         <H>1.44020600e-001</H>
#         <I>-1.11979100e-004</I>
#         <J>2.78077800e-005</J>
#         <CPcor>-9.57000000e-008</CPcor>
#         <CTcor>3.2500e-006</CTcor>
#         <!-- WBOTC not applicable unless ConductivityType = 1. -->
#         <WBOTC>1.56223400e-007</WBOTC>
#       </Coefficients>
#       <Slope>1.00000000</Slope>
#       <Offset>0.00000</Offset>
#     </ConductivitySensor>
#   </sensor>
#   <sensor Channel="3" >
#     <!-- Count, Pressure, Strain Gauge -->
#     <PressureSensor SensorID="46" >
#       <SerialNumber>5514817</SerialNumber>
#       <CalibrationDate>20-Mar-24</CalibrationDate>
#       <PA0>-8.96851400e+000</PA0>
#       <PA1>3.06714100e-002</PA1>
#       <PA2>2.40042300e-009</PA2>
#       <PTEMPA0>-1.00738400e+002</PTEMPA0>
#       <PTEMPA1>4.17612100e-002</PTEMPA1>
#       <PTEMPA2>9.80135700e-007</PTEMPA2>
#       <PTCA0>5.24430700e+005</PTCA0>
#       <PTCA1>4.97080700e+000</PTCA1>
#       <PTCA2>-7.60731400e-001</PTCA2>
#       <PTCB0>1.01064400e+002</PTCB0>
#       <PTCB1>-4.98605700e-003</PTCB1>
#       <PTCB2>0.00000000e+000</PTCB2>
#       <Offset>0.000000</Offset>
#     </PressureSensor>
#   </sensor>
# </Sensors>
# datcnv_date = May 19 2025 08:07:46, 7.26.7.129 [datcnv_vars = 4]
# datcnv_in = C:\CE25007_recovery_data\21269_cal_dip_data.hex C:\CE25007_recovery_data\21269_cal_dip_data.xmlcon
# datcnv_skipover = 0
# file_type = ascii
*END*
    15.6965   0.000250      1.080  800455201  0.000e+00
    16.0568   0.000190      0.352  800511301  0.000e+00
    16.0378   0.000187      0.415  800511311  0.000e+00
    16.0254   0.000187      0.373  800511321  0.000e+00
    16.0132   0.000184      0.394  800511331  0.000e+00
    16.0132   0.000187      0.352  800511341  0.000e+00
    15.9937   0.000187      0.331  800511351  0.000e+00
    15.9944   0.000187      0.373  800511361  0.000e+00
    15.9755   0.000187      0.331  800511371  0.000e+00
    15.9575   0.000184      0.394  800511381  0.000e+00
    15.9528   0.000187      0.330  800511391  0.000e+00
    15.9264   0.000187      0.352  800511401  0.000e+00
    15.9330   0.000187      0.373  800511411  0.000e+00
    15.9297   0.000187      0.330  800511421  0.000e+00
    15.9259   0.000208      0.373  800511431  0.000e+00
    15.9096   0.000187      0.373  800511441  0.000e+00
    15.9137   0.000184      0.267  800511451  0.000e+00
    15.8982   0.000187      0.288  800511461  0.000e+00
    15.8743   0.000187      0.309  800511471  0.000e+00
    15.8565   0.000187      0.309  800511481  0.000e+00
    15.8305   0.000187      0.288  800511491  0.000e+00
    15.8228   0.000187      0.267  800511501  0.000e+00
    15.8132   0.000187      0.267  800511511  0.000e+00
    15.8062   0.000187      0.352  800511521  0.000e+00
    15.8023   0.000187      0.288  800511531  0.000e+00
    15.7563   0.000187      0.268  800511541  0.000e+00
    15.7684   0.000184      0.289  800511551  0.000e+00
    15.7939   0.000187      0.246  800511561  0.000e+00
    15.7809   0.000187      0.246  800511571  0.000e+00
    15.7690   0.000187      0.225  800511581  0.000e+00
    15.7611   0.000184      0.141  800511591  0.000e+00
    15.7397   0.000184      0.204  800511601  0.000e+00
    15.7234   0.000184      0.162  800511611  0.000e+00
    15.7179   0.000184      0.162  800511621  0.000e+00
    15.7031   0.000184      0.162  800511631  0.000e+00
    15.7001   0.000184      0.141  800511641  0.000e+00
    15.6870   0.000184      0.162  800511651  0.000e+00
    15.6804   0.000184      0.121  800511661  0.000e+00
    15.6580   0.000184      0.121  800511671  0.000e+00
    15.6620   0.000184      0.079  800511681  0.000e+00
    15.6418   0.000184      0.100  800511691  0.000e+00
    15.6289   0.000184      0.100  800511701  0.000e+00
    15.5913   0.000184     -0.069  800511711  0.000e+00
    15.5871   0.000184      0.058  800511721  0.000e+00
    15.5681   0.000181      0.122  800511731  0.000e+00
    15.5734   0.000181      0.101  800511741  0.000e+00
    15.5488   0.000181      0.038  800511751  0.000e+00
    15.5459   0.000184      0.080  800511761  0.000e+00
    15.5339   0.000184      0.059  800511771  0.000e+00
    15.5140   0.000184      0.123  800511781  0.000e+00
    15.5031   0.000181      0.123  800511791  0.000e+00
    15.4886   0.000184      0.082  800511801  0.000e+00
    15.4684   0.000181      0.082  800511811  0.000e+00
    15.4548   0.000181      0.124  800511821  0.000e+00
    15.4489   0.000181      0.104  800511831  0.000e+00
    15.4371   0.000181      0.146  800511841  0.000e+00
    15.4295   0.000181      0.125  800511851  0.000e+00
    15.4225   0.000181      0.083  800511861  0.000e+00
    15.4073   0.000181      0.126  800511871  0.000e+00
    15.3930   0.000181      0.147  800511881  0.000e+00
    15.3941   0.000184      0.169  800511891  0.000e+00
    15.3835   0.000181      0.106  800511901  0.000e+00
    15.3853   0.000184      0.190  800511911  0.000e+00
    15.3684   0.000181      0.190  800511921  0.000e+00
    15.3494   0.000181      0.193  800511931  0.000e+00
    15.3350   0.000181      0.149  800511941  0.000e+00
    15.3194   0.000181      0.426  800511951  0.000e+00
    15.3164   0.000184      0.214  800511961  0.000e+00
    15.3144   0.000181      0.129  800511971  0.000e+00
    15.3134   0.000184      0.194  800511981  0.000e+00
    15.2972   0.000181      0.215  800511991  0.000e+00
    15.2966   0.000184      0.174  800512001  0.000e+00
    15.2923   0.000181     -0.039  800512011  0.000e+00
    15.2784   0.000181      0.174  800512021  0.000e+00
    15.2719   0.000184      0.280  800512031  0.000e+00
    15.2624   0.000181      0.238  800512041  0.000e+00
    15.2509   0.000181      0.260  800512051  0.000e+00
    15.2517   0.000181      0.240  800512061  0.000e+00
    15.2465   0.000184      0.260  800512071  0.000e+00
    15.2391   0.000181     -0.098  800512081  0.000e+00
    15.2312   0.000184      0.219  800512091  0.000e+00
    15.2280   0.000181      0.198  800512101  0.000e+00
    15.2280   0.000181      0.242  800512111  0.000e+00
    15.2347   0.000181      0.263  800512121  0.000e+00
    15.2268   0.000184      0.284  800512131  0.000e+00
    15.2254   0.000181      0.263  800512141  0.000e+00
    15.2163   0.000181      0.265  800512151  0.000e+00
    15.2137   0.000184      0.520  800512161  0.000e+00
    15.2183   0.000181      0.244  800512171  0.000e+00
    15.2237   0.000181      0.224  800512181  0.000e+00
    15.2561   0.000184      0.203  800512191  0.000e+00
    15.2340   0.000181      0.309  800512201  0.000e+00
    15.2213   0.000181      0.245  800512211  0.000e+00
    15.2207   0.000181      0.226  800512221  0.000e+00
    15.2162   0.000181      0.288  800512231  0.000e+00
    15.2134   0.000181      0.268  800512241  0.000e+00
    15.2041   0.000181      0.289  800512251  0.000e+00
    15.1962   0.000181      0.268  800512261  0.000e+00
    15.1908   0.000181      0.228  800512271  0.000e+00
    15.1767   0.000181      0.289  800512281  0.000e+00
    15.1694   0.000181      0.291  800512291  0.000e+00
    15.1615   0.000184      0.291  800512301  0.000e+00
    15.1636   0.000181      0.312  800512311  0.000e+00
    15.1562   0.000181      0.314  800512321  0.000e+00
    15.1401   0.000181      0.272  800512331  0.000e+00
    15.1468   0.000181      0.334  800512341  0.000e+00
    15.1515   0.000181      0.274  800512351  0.000e+00
    15.1457   0.000181      0.314  800512361  0.000e+00
    15.1416   0.000181      0.337  800512371  0.000e+00
    15.1475   0.000181      0.337  800512381  0.000e+00
    15.1397   0.000181      0.337  800512391  0.000e+00
    15.1355   0.000127      0.293  800512401  0.000e+00
    15.1314   0.000181      0.316  800512411  0.000e+00
    15.1298   0.000181      0.297  800512421  0.000e+00
    15.1144   0.000172      0.168  800512431  0.000e+00
    15.1081   0.000181      0.297  800512441  0.000e+00
    15.1008   0.000178      0.297  800512451  0.000e+00
    15.0938   0.000181      0.342  800512461  0.000e+00
    15.0886   0.000181      0.363  800512471  0.000e+00
    15.0908   0.000181      0.280  800512481  0.000e+00
    15.0761   0.000181      0.301  800512491  0.000e+00
    15.0470   0.000181      0.299  800512501  0.000e+00
    15.0243   0.000178      0.365  800512511  0.000e+00
    14.9954   0.000178      0.344  800512521  0.000e+00
    14.9497   0.000181      0.346  800512531  0.000e+00
    14.9624   0.000181      0.325  800512541  0.000e+00
    14.9693   0.000178      0.365  800512551  0.000e+00
    14.9968   0.000181      0.301  800512561  0.000e+00
    15.0064   0.000178      0.304  800512571  0.000e+00
    15.0073   0.000178      0.428  800512581  0.000e+00
    15.0872   0.000181      0.388  800512591  0.000e+00
    13.8407   0.000189      1.216  800512601  0.000e+00
    12.8955   0.000102      1.364  800512611  0.000e+00
    12.5163   0.000144      2.232  800512621  0.000e+00
    12.4026   2.133981      6.021  800512631  0.000e+00
    12.3486   3.381174      9.199  800512641  0.000e+00
    12.3726   4.088957     11.043  800512651  0.000e+00
    12.3464   4.083707     10.791  800512661  0.000e+00
    12.3460   4.082002      9.124  800512671  0.000e+00
    12.3466   4.080848      5.277  800512681  0.000e+00
    12.3459   4.079944      1.298  800512691  0.000e+00
    12.3433   4.078658      1.561  800512701  0.000e+00
    12.3417   4.078207      1.419  800512711  0.000e+00
    12.3428   4.077749      2.520  800512721  0.000e+00
    12.3440   4.077731      7.398  800512731  0.000e+00
    12.3486   4.078096     11.765  800512741  0.000e+00
    12.3140   4.075560     16.302  800512751  0.000e+00
    12.1517   4.060878     21.365  800512761  0.000e+00
    12.0227   4.048795     26.475  800512771  0.000e+00
    11.8763   4.035459     32.194  800512781  0.000e+00
    11.4704   3.999036     39.341  800512791  0.000e+00
    11.3441   3.986728     45.887  800512801  0.000e+00
    11.3282   3.985036     52.671  800512811  0.000e+00
    11.3339   3.985385     59.705  800512821  0.000e+00
    11.3232   3.985175     66.739  800512831  0.000e+00
    11.3291   3.985844     73.910  800512841  0.000e+00
    11.2896   3.981772     81.221  800512851  0.000e+00
    11.2958   3.982795     89.278  800512861  0.000e+00
    11.3084   3.984866     98.098  800512871  0.000e+00
    11.2422   3.978241    105.007  800512881  0.000e+00
    11.1582   3.969707    110.864  800512891  0.000e+00
    11.1216   3.966095    121.295  800512901  0.000e+00
    11.1255   3.966679    132.279  800512911  0.000e+00
    11.1237   3.967049    142.840  800512921  0.000e+00
    11.0583   3.961235    152.889  800512931  0.000e+00
    11.0193   3.957666    162.365  800512941  0.000e+00
    10.9791   3.954051    171.848  800512951  0.000e+00
    10.9561   3.951788    181.438  800512961  0.000e+00
    10.8687   3.943651    191.877  800512971  0.000e+00
    10.8358   3.940845    201.865  800512981  0.000e+00
    10.8046   3.938180    211.924  800512991  0.000e+00
    10.7701   3.935143    221.823  800513001  0.000e+00
    10.7535   3.934092    232.732  800513011  0.000e+00
    10.6970   3.928285    242.850  800513021  0.000e+00
    10.6280   3.921691    252.779  800513031  0.000e+00
    10.5004   3.908859    263.033  800513041  0.000e+00
    10.3359   3.891529    272.942  800513051  0.000e+00
    10.2077   3.878367    283.304  800513061  0.000e+00
    10.2311   3.880958    293.215  800513071  0.000e+00
    10.1106   3.869253    303.508  800513081  0.000e+00
     9.9835   3.856595    313.547  800513091  0.000e+00
    10.0710   3.864852    323.637  800513101  0.000e+00
    10.2069   3.880663    333.727  800513111  0.000e+00
    10.2156   3.883301    344.299  800513121  0.000e+00
    10.2242   3.885437    354.342  800513131  0.000e+00
    10.1398   3.877560    364.470  800513141  0.000e+00
    10.0075   3.864581    374.515  800513151  0.000e+00
     9.9801   3.862068    384.659  800513161  0.000e+00
     9.9605   3.860294    394.846  800513171  0.000e+00
     9.9231   3.856920    405.084  800513181  0.000e+00
     9.8840   3.853823    414.820  800513191  0.000e+00
     9.8058   3.846951    424.606  800513201  0.000e+00
     9.7584   3.842964    434.471  800513211  0.000e+00
     9.7003   3.837335    444.712  800513221  0.000e+00
     9.6594   3.833765    454.855  800513231  0.000e+00
     9.6221   3.829947    464.907  800513241  0.000e+00
     9.6086   3.828697    475.001  800513251  0.000e+00
     9.5604   3.824349    485.181  800513261  0.000e+00
     9.5152   3.820214    495.129  800513271  0.000e+00
     9.4616   3.815621    505.289  800513281  0.000e+00
     9.3727   3.806792    515.281  800513291  0.000e+00
     9.2369   3.794066    525.345  800513301  0.000e+00
     9.1696   3.787479    535.627  800513311  0.000e+00
     9.0540   3.776286    545.791  800513321  0.000e+00
     8.9876   3.769894    555.900  800513331  0.000e+00
     8.8393   3.755478    566.227  800513341  0.000e+00
     8.8207   3.753228    575.925  800513351  0.000e+00
     8.7550   3.747268    585.973  800513361  0.000e+00
     8.5951   3.733829    596.268  800513371  0.000e+00
     8.5243   3.727556    606.117  800513381  0.000e+00
     8.4871   3.723891    615.649  800513391  0.000e+00
     8.4116   3.716860    625.904  800513401  0.000e+00
     8.3394   3.711208    635.883  800513411  0.000e+00
     8.2177   3.699763    645.966  800513421  0.000e+00
     8.1883   3.696335    656.053  800513431  0.000e+00
     8.1183   3.690320    665.950  800513441  0.000e+00
     8.0304   3.682229    675.953  800513451  0.000e+00
     7.9046   3.670728    686.022  800513461  0.000e+00
     7.6262   3.642881    696.173  800513471  0.000e+00
     7.4591   3.625241    705.723  800513481  0.000e+00
     7.4475   3.623587    716.058  800513491  0.000e+00
     7.2966   3.608530    726.321  800513501  0.000e+00
     7.2242   3.601938    736.117  800513511  0.000e+00
     7.1304   3.593277    746.157  800513521  0.000e+00
     7.0478   3.585897    756.465  800513531  0.000e+00
     6.9985   3.581744    766.698  800513541  0.000e+00
     6.9423   3.576206    777.166  800513551  0.000e+00
     6.8786   3.570187    786.966  800513561  0.000e+00
     6.7669   3.560255    797.829  800513571  0.000e+00
     6.7862   3.562567    807.727  800513581  0.000e+00
     6.7570   3.560396    817.986  800513591  0.000e+00
     6.7089   3.556580    828.139  800513601  0.000e+00
     6.5873   3.545771    838.656  800513611  0.000e+00
     6.4595   3.533385    848.928  800513621  0.000e+00
     6.4423   3.531704    858.531  800513631  0.000e+00
     6.3855   3.526540    868.614  800513641  0.000e+00
     6.3257   3.521036    878.708  800513651  0.000e+00
     6.2701   3.515726    888.537  800513661  0.000e+00
     6.1813   3.507781    898.356  800513671  0.000e+00
     6.0634   3.496612    908.143  800513681  0.000e+00
     6.0226   3.493000    918.028  800513691  0.000e+00
     5.9622   3.487023    927.838  800513701  0.000e+00
     5.9105   3.482176    937.628  800513711  0.000e+00
     5.8737   3.478778    947.612  800513721  0.000e+00
     5.8247   3.474144    957.488  800513731  0.000e+00
     5.7578   3.468135    967.526  800513741  0.000e+00
     5.7157   3.463765    977.118  800513751  0.000e+00
     5.6673   3.459832    986.911  800513761  0.000e+00
     5.5751   3.451508    996.973  800513771  0.000e+00
     5.5265   3.446799   1006.598  800513781  0.000e+00
     5.4675   3.441338   1016.811  800513791  0.000e+00
     5.3748   3.432963   1026.854  800513801  0.000e+00
     5.3119   3.426718   1036.673  800513811  0.000e+00
     5.2523   3.421219   1046.876  800513821  0.000e+00
     5.2354   3.419195   1056.675  800513831  0.000e+00
     5.1615   3.413104   1066.713  800513841  0.000e+00
     5.0960   3.407106   1076.748  800513851  0.000e+00
     5.0342   3.401388   1086.720  800513861  0.000e+00
     4.9693   3.395303   1096.748  800513871  0.000e+00
     4.9435   3.393028   1107.383  800513881  0.000e+00
     4.9258   3.391467   1117.634  800513891  0.000e+00
     4.8696   3.386384   1127.857  800513901  0.000e+00
     4.7525   3.375381   1137.961  800513911  0.000e+00
     4.6746   3.367249   1148.535  800513921  0.000e+00
     4.6633   3.366591   1158.888  800513931  0.000e+00
     4.6189   3.362427   1169.263  800513941  0.000e+00
     4.6076   3.361382   1179.413  800513951  0.000e+00
     4.5817   3.359191   1189.307  800513961  0.000e+00
     4.5857   3.360192   1199.685  800513971  0.000e+00
     4.5928   3.361286   1209.859  800513981  0.000e+00
     4.5750   3.359936   1219.684  800513991  0.000e+00
     4.5365   3.357134   1229.738  800514001  0.000e+00
     4.4850   3.352377   1240.192  800514011  0.000e+00
     4.4589   3.350262   1250.062  800514021  0.000e+00
     4.4984   3.354383   1260.338  800514031  0.000e+00
     4.4505   3.350325   1270.346  800514041  0.000e+00
     4.4175   3.347619   1280.674  800514051  0.000e+00
     4.4127   3.347392   1290.448  800514061  0.000e+00
     4.4044   3.346990   1300.479  800514071  0.000e+00
     4.3912   3.346197   1310.746  800514081  0.000e+00
     4.3709   3.344756   1320.579  800514091  0.000e+00
     4.3115   3.339862   1330.697  800514101  0.000e+00
     4.2029   3.330086   1340.860  800514111  0.000e+00
     4.1438   3.324417   1350.624  800514121  0.000e+00
     4.1336   3.323346   1360.524  800514131  0.000e+00
     4.1759   3.327591   1371.009  800514141  0.000e+00
     4.1848   3.328918   1380.811  800514151  0.000e+00
     4.1675   3.327616   1390.507  800514161  0.000e+00
     4.1546   3.326918   1400.524  800514171  0.000e+00
     4.1178   3.324052   1410.933  800514181  0.000e+00
     4.0625   3.319256   1420.796  800514191  0.000e+00
     4.0543   3.318769   1430.858  800514201  0.000e+00
     4.0438   3.317985   1440.964  800514211  0.000e+00
     4.0322   3.317144   1450.735  800514221  0.000e+00
     4.0213   3.316489   1461.034  800514231  0.000e+00
     4.0297   3.317684   1470.800  800514241  0.000e+00
     4.0207   3.317439   1480.688  800514251  0.000e+00
     3.9829   3.314291   1490.376  800514261  0.000e+00
     3.9645   3.312867   1500.422  800514271  0.000e+00
     3.9483   3.311649   1510.240  800514281  0.000e+00
     3.9395   3.311131   1520.116  800514291  0.000e+00
     3.9314   3.310775   1530.192  800514301  0.000e+00
     3.9239   3.310419   1540.385  800514311  0.000e+00
     3.9170   3.310118   1550.355  800514321  0.000e+00
     3.9044   3.309315   1559.913  800514331  0.000e+00
     3.8936   3.308829   1570.136  800514341  0.000e+00
     3.8773   3.307840   1580.322  800514351  0.000e+00
     3.8583   3.306468   1590.754  800514361  0.000e+00
     3.8416   3.305257   1600.706  800514371  0.000e+00
     3.8355   3.305093   1611.088  800514381  0.000e+00
     3.8225   3.304340   1621.549  800514391  0.000e+00
     3.8084   3.303408   1632.119  800514401  0.000e+00
     3.7959   3.302662   1642.566  800514411  0.000e+00
     3.7857   3.302077   1652.666  800514421  0.000e+00
     3.7854   3.302458   1663.131  800514431  0.000e+00
     3.7806   3.302375   1673.416  800514441  0.000e+00
     3.7621   3.301331   1683.876  800514451  0.000e+00
     3.7574   3.301291   1694.628  800514461  0.000e+00
     3.7529   3.301319   1704.582  800514471  0.000e+00
     3.7451   3.300802   1715.078  800514481  0.000e+00
     3.7186   3.299091   1725.434  800514491  0.000e+00
     3.7114   3.298865   1735.895  800514501  0.000e+00
     3.7106   3.299209   1746.023  800514511  0.000e+00
     3.7072   3.299317   1756.109  800514521  0.000e+00
     3.7077   3.299964   1766.465  800514531  0.000e+00
     3.7034   3.300048   1776.440  800514541  0.000e+00
     3.6912   3.299494   1786.368  800514551  0.000e+00
     3.6869   3.299565   1796.366  800514561  0.000e+00
     3.6814   3.299500   1806.360  800514571  0.000e+00
     3.6774   3.299572   1816.601  800514581  0.000e+00
     3.6705   3.299395   1826.355  800514591  0.000e+00
     3.6674   3.299504   1835.932  800514601  0.000e+00
     3.6641   3.299619   1846.325  800514611  0.000e+00
     3.6547   3.299269   1856.644  800514621  0.000e+00
     3.6399   3.298374   1866.267  800514631  0.000e+00
     3.6344   3.298297   1876.196  800514641  0.000e+00
     3.6258   3.298096   1886.313  800514651  0.000e+00
     3.6086   3.297195   1896.672  800514661  0.000e+00
     3.5832   3.295490   1906.619  800514671  0.000e+00
     3.5680   3.294497   1916.530  800514681  0.000e+00
     3.5604   3.294123   1926.634  800514691  0.000e+00
     3.5403   3.292684   1936.245  800514701  0.000e+00
     3.5330   3.292422   1946.544  800514711  0.000e+00
     3.5141   3.291200   1957.010  800514721  0.000e+00
     3.5105   3.291216   1967.031  800514731  0.000e+00
     3.5060   3.291188   1976.768  800514741  0.000e+00
     3.4753   3.289088   1987.199  800514751  0.000e+00
     3.4636   3.288448   1997.839  800514761  0.000e+00
     3.4468   3.287487   2007.955  800514771  0.000e+00
     3.4334   3.286569   2017.974  800514781  0.000e+00
     3.4280   3.286529   2028.000  800514791  0.000e+00
     3.4184   3.285994   2038.219  800514801  0.000e+00
     3.4021   3.285083   2048.198  800514811  0.000e+00
     3.3923   3.284554   2058.483  800514821  0.000e+00
     3.3908   3.284663   2068.389  800514831  0.000e+00
     3.3747   3.283844   2078.471  800514841  0.000e+00
     3.3532   3.282456   2088.307  800514851  0.000e+00
     3.3303   3.280977   2098.832  800514861  0.000e+00
     3.3091   3.279578   2108.735  800514871  0.000e+00
     3.2941   3.278623   2118.525  800514881  0.000e+00
     3.2674   3.276978   2128.815  800514891  0.000e+00
     3.2459   3.275326   2138.929  800514901  0.000e+00
     3.2102   3.272792   2148.748  800514911  0.000e+00
     3.1961   3.271777   2159.149  800514921  0.000e+00
     3.1787   3.270718   2168.942  800514931  0.000e+00
     3.1570   3.269074   2179.113  800514941  0.000e+00
     3.1335   3.267479   2188.994  800514951  0.000e+00
     3.1006   3.265102   2199.183  800514961  0.000e+00
     3.0812   3.263607   2209.323  800514971  0.000e+00
     3.0560   3.261945   2219.319  800514981  0.000e+00
     3.0363   3.260475   2229.338  800514991  0.000e+00
     3.0179   3.259320   2239.465  800515001  0.000e+00
     2.9914   3.257456   2249.414  800515011  0.000e+00
     2.9782   3.256498   2259.435  800515021  0.000e+00
     2.9481   3.254419   2269.816  800515031  0.000e+00
     2.9195   3.252144   2280.010  800515041  0.000e+00
     2.9060   3.251309   2289.689  800515051  0.000e+00
     2.9000   3.250949   2299.685  800515061  0.000e+00
     2.8828   3.249801   2309.811  800515071  0.000e+00
     2.8803   3.249854   2319.664  800515081  0.000e+00
     2.8808   3.250128   2329.668  800515091  0.000e+00
     2.8756   3.249988   2337.069  800515101  0.000e+00
     2.8690   3.249423   2340.743  800515111  0.000e+00
     2.8636   3.249229   2348.354  800515121  0.000e+00
     2.8585   3.249126   2356.488  800515131  0.000e+00
     2.8489   3.248649   2364.902  800515141  0.000e+00
     2.8449   3.248535   2373.059  800515151  0.000e+00
     2.8439   3.248697   2380.909  800515161  0.000e+00
     2.8416   3.248767   2389.238  800515171  0.000e+00
     2.8403   3.248787   2394.060  800515181  0.000e+00
     2.8373   3.248690   2398.467  800515191  0.000e+00
     2.8264   3.247941   2403.294  800515201  0.000e+00
     2.8203   3.247573   2408.218  800515211  0.000e+00
     2.8116   3.246996   2412.991  800515221  0.000e+00
     2.8118   3.246910   2412.884  800515231  0.000e+00
     2.8096   3.246652   2412.469  800515241  0.000e+00
     2.8080   3.246442   2412.663  800515251  0.000e+00
     2.8065   3.246301   2412.491  800515261  0.000e+00
     2.8076   3.246369   2412.813  800515271  0.000e+00
     2.8066   3.246289   2413.287  800515281  0.000e+00
     2.8067   3.246252   2413.131  800515291  0.000e+00
     2.8069   3.246245   2412.614  800515301  0.000e+00
     2.8065   3.246227   2412.544  800515311  0.000e+00
     2.8071   3.246264   2413.147  800515321  0.000e+00
     2.8072   3.246283   2413.346  800515331  0.000e+00
     2.8075   3.246301   2412.846  800515341  0.000e+00
     2.8074   3.246301   2412.889  800515351  0.000e+00
     2.8082   3.246344   2412.781  800515361  0.000e+00
     2.8077   3.246319   2412.948  800515371  0.000e+00
     2.8080   3.246356   2413.120  800515381  0.000e+00
     2.8089   3.246399   2413.012  800515391  0.000e+00
     2.8087   3.246412   2412.964  800515401  0.000e+00
     2.8098   3.246473   2412.819  800515411  0.000e+00
     2.8092   3.246455   2412.840  800515421  0.000e+00
     2.8096   3.246467   2413.142  800515431  0.000e+00
     2.8090   3.246449   2413.330  800515441  0.000e+00
     2.8090   3.246442   2412.986  800515451  0.000e+00
     2.8087   3.246430   2413.093  800515461  0.000e+00
     2.8093   3.246461   2413.110  800515471  0.000e+00
     2.8098   3.246504   2413.325  800515481  0.000e+00
     2.8093   3.246461   2413.088  800515491  0.000e+00
     2.8085   3.246399   2412.980  800515501  0.000e+00
     2.8091   3.246449   2412.765  800515511  0.000e+00
     2.8091   3.246436   2412.889  800515521  0.000e+00
     2.8085   3.246424   2413.648  800515531  0.000e+00
     2.8084   3.246412   2413.556  800515541  0.000e+00
     2.8083   3.246393   2413.363  800515551  0.000e+00
     2.8093   3.246424   2412.464  800515561  0.000e+00
     2.8088   3.246436   2413.470  800515571  0.000e+00
     2.8080   3.246369   2413.535  800515581  0.000e+00
     2.8076   3.246332   2412.889  800515591  0.000e+00
     2.8081   3.246356   2413.363  800515601  0.000e+00
     2.8081   3.246387   2413.594  800515611  0.000e+00
     2.8083   3.246381   2413.078  800515621  0.000e+00
     2.8082   3.246369   2412.717  800515631  0.000e+00
     2.8084   3.246387   2413.363  800515641  0.000e+00
     2.8082   3.246412   2413.788  800515651  0.000e+00
     2.8084   3.246381   2412.970  800515661  0.000e+00
     2.8086   3.246393   2413.121  800515671  0.000e+00
     2.8087   3.246393   2412.819  800515681  0.000e+00
     2.8087   3.246418   2413.487  800515691  0.000e+00
     2.8088   3.246430   2413.250  800515701  0.000e+00
     2.8085   3.246406   2413.142  800515711  0.000e+00
     2.8086   3.246418   2413.315  800515721  0.000e+00
     2.8087   3.246424   2413.379  800515731  0.000e+00
     2.8092   3.246436   2412.906  800515741  0.000e+00
     2.8089   3.246443   2413.465  800515751  0.000e+00
     2.8090   3.246455   2413.271  800515761  0.000e+00
     2.8087   3.246418   2412.987  800515771  0.000e+00
     2.8085   3.246412   2413.185  800515781  0.000e+00
     2.8084   3.246393   2413.099  800515791  0.000e+00
     2.8082   3.246369   2413.180  800515801  0.000e+00
     2.8081   3.246406   2413.917  800515811  0.000e+00
     2.8080   3.246375   2413.331  800515821  0.000e+00
     2.8075   3.246332   2413.465  800515831  0.000e+00
     2.8070   3.246283   2413.654  800515841  0.000e+00
     2.8065   3.246239   2413.336  800515851  0.000e+00
     2.8073   3.246276   2413.202  800515861  0.000e+00
     2.8084   3.246344   2413.353  800515871  0.000e+00
     2.8085   3.246387   2413.008  800515881  0.000e+00
     2.8082   3.246375   2413.078  800515891  0.000e+00
     2.8085   3.246412   2413.783  800515901  0.000e+00
     2.8078   3.246363   2413.546  800515911  0.000e+00
     2.8079   3.246350   2412.987  800515921  0.000e+00
     2.8076   3.246332   2412.900  800515931  0.000e+00
     2.8085   3.246381   2413.503  800515941  0.000e+00
     2.8083   3.246387   2413.245  800515951  0.000e+00
     2.8085   3.246399   2413.374  800515961  0.000e+00
     2.8085   3.246412   2413.546  800515971  0.000e+00
     2.8092   3.246436   2412.982  800515981  0.000e+00
     2.8089   3.246443   2413.503  800515991  0.000e+00
     2.8089   3.246449   2413.228  800516001  0.000e+00
     2.8087   3.246430   2413.223  800516011  0.000e+00
     2.8087   3.246443   2413.675  800516021  0.000e+00
     2.8090   3.246449   2412.939  800516031  0.000e+00
     2.8090   3.246461   2413.740  800516041  0.000e+00
     2.8090   3.246455   2413.546  800516051  0.000e+00
     2.8088   3.246442   2413.197  800516061  0.000e+00
     2.8086   3.246436   2413.503  800516071  0.000e+00
     2.8089   3.246455   2413.326  800516081  0.000e+00
     2.8088   3.246455   2413.627  800516091  0.000e+00
     2.8088   3.246449   2413.671  800516101  0.000e+00
     2.8093   3.246442   2412.793  800516111  0.000e+00
     2.8092   3.246473   2413.525  800516121  0.000e+00
     2.8094   3.246486   2413.202  800516131  0.000e+00
     2.8096   3.246504   2413.546  800516141  0.000e+00
     2.8093   3.246498   2413.606  800516151  0.000e+00
     2.8099   3.246516   2413.369  800516161  0.000e+00
     2.8092   3.246498   2413.374  800516171  0.000e+00
     2.8092   3.246467   2412.621  800516181  0.000e+00
     2.8104   3.246255   2405.469  800516191  0.000e+00
     2.8290   3.247373   2397.763  800516201  0.000e+00
     2.8410   3.248121   2390.014  800516211  0.000e+00
     2.8423   3.247996   2382.438  800516221  0.000e+00
     2.8435   3.247858   2375.212  800516231  0.000e+00
     2.8449   3.247739   2367.352  800516241  0.000e+00
     2.8448   3.247484   2359.389  800516251  0.000e+00
     2.8449   3.247416   2357.453  800516261  0.000e+00
     2.8451   3.247446   2357.285  800516271  0.000e+00
     2.8459   3.247570   2357.646  800516281  0.000e+00
     2.8458   3.247619   2357.792  800516291  0.000e+00
     2.8455   3.247588   2357.496  800516301  0.000e+00
     2.8454   3.247607   2357.690  800516311  0.000e+00
     2.8450   3.247600   2357.539  800516321  0.000e+00
     2.8458   3.247650   2357.690  800516331  0.000e+00
     2.8458   3.247681   2358.055  800516341  0.000e+00
     2.8463   3.247686   2357.496  800516351  0.000e+00
     2.8464   3.247686   2357.517  800516361  0.000e+00
     2.8463   3.247668   2356.296  800516371  0.000e+00
     2.8479   3.247493   2349.443  800516381  0.000e+00
     2.8531   3.247583   2341.728  800516391  0.000e+00
     2.8608   3.247888   2333.918  800516401  0.000e+00
     2.8566   3.247556   2333.096  800516411  0.000e+00
     2.8562   3.247487   2331.117  800516421  0.000e+00
     2.8668   3.247990   2323.156  800516431  0.000e+00
     2.8701   3.248043   2315.675  800516441  0.000e+00
     2.8751   3.248138   2307.436  800516451  0.000e+00
     2.8746   3.247847   2300.032  800516461  0.000e+00
     2.8927   3.248940   2292.229  800516471  0.000e+00
     2.8980   3.249171   2284.438  800516481  0.000e+00
     2.9065   3.249569   2276.438  800516491  0.000e+00
     2.9239   3.250693   2268.270  800516501  0.000e+00
     2.9476   3.252384   2260.717  800516511  0.000e+00
     2.9715   3.254143   2252.981  800516521  0.000e+00
     2.9959   3.255908   2244.870  800516531  0.000e+00
     3.0029   3.256337   2237.199  800516541  0.000e+00
     3.0180   3.257394   2229.330  800516551  0.000e+00
     3.0278   3.258075   2221.586  800516561  0.000e+00
     3.0397   3.258757   2213.465  800516571  0.000e+00
     3.0700   3.260868   2205.533  800516581  0.000e+00
     3.0904   3.262388   2197.881  800516591  0.000e+00
     3.1066   3.263557   2190.358  800516601  0.000e+00
     3.1175   3.264301   2182.965  800516611  0.000e+00
     3.1393   3.265810   2176.109  800516621  0.000e+00
     3.1449   3.266122   2169.103  800516631  0.000e+00
     3.1506   3.266484   2161.819  800516641  0.000e+00
     3.1596   3.267055   2154.839  800516651  0.000e+00
     3.1796   3.268385   2147.272  800516661  0.000e+00
     3.1922   3.269123   2139.455  800516671  0.000e+00
     3.2193   3.271126   2132.151  800516681  0.000e+00
     3.2251   3.271612   2128.112  800516691  0.000e+00
     3.2146   3.271033   2128.821  800516701  0.000e+00
     3.2298   3.272291   2128.589  800516711  0.000e+00
     3.2308   3.272470   2128.352  800516721  0.000e+00
     3.2312   3.272600   2128.692  800516731  0.000e+00
     3.2308   3.272606   2128.288  800516741  0.000e+00
     3.2315   3.272699   2128.481  800516751  0.000e+00
     3.2315   3.272736   2128.761  800516761  0.000e+00
     3.2313   3.272736   2128.073  800516771  0.000e+00
     3.2317   3.272779   2128.529  800516781  0.000e+00
     3.2314   3.272773   2128.615  800516791  0.000e+00
     3.2310   3.272730   2128.421  800516801  0.000e+00
     3.2299   3.272662   2128.443  800516811  0.000e+00
     3.2314   3.272698   2127.089  800516821  0.000e+00
     3.2521   3.273931   2119.893  800516831  0.000e+00
     3.2661   3.274830   2112.357  800516841  0.000e+00
     3.2737   3.275092   2104.023  800516851  0.000e+00
     3.2814   3.275454   2096.570  800516861  0.000e+00
     3.2941   3.276094   2088.683  800516871  0.000e+00
     3.3105   3.277154   2080.955  800516881  0.000e+00
     3.3378   3.279189   2073.160  800516891  0.000e+00
     3.3574   3.280391   2065.451  800516901  0.000e+00
     3.3626   3.280871   2057.785  800516911  0.000e+00
     3.3852   3.282388   2050.012  800516921  0.000e+00
     3.3907   3.282769   2042.025  800516931  0.000e+00
     3.3979   3.283045   2034.450  800516941  0.000e+00
     3.4116   3.283970   2027.602  800516951  0.000e+00
     3.4043   3.283580   2027.494  800516961  0.000e+00
     3.4112   3.284167   2027.194  800516971  0.000e+00
     3.4129   3.284427   2026.958  800516981  0.000e+00
     3.4139   3.284520   2027.155  800516991  0.000e+00
     3.4138   3.284588   2027.714  800517001  0.000e+00
     3.4138   3.284606   2027.134  800517011  0.000e+00
     3.4141   3.284643   2027.589  800517021  0.000e+00
     3.4140   3.284649   2027.370  800517031  0.000e+00
     3.4136   3.284637   2027.418  800517041  0.000e+00
     3.4141   3.284693   2027.761  800517051  0.000e+00
     3.4140   3.284668   2027.396  800517061  0.000e+00
     3.4133   3.284625   2027.096  800517071  0.000e+00
     3.4133   3.284637   2027.680  800517081  0.000e+00
     3.4128   3.284644   2028.019  800517091  0.000e+00
     3.4135   3.284637   2027.293  800517101  0.000e+00
     3.4135   3.284656   2027.718  800517111  0.000e+00
     3.4133   3.284656   2027.336  800517121  0.000e+00
     3.4130   3.284619   2027.186  800517131  0.000e+00
     3.4129   3.284606   2027.680  800517141  0.000e+00
     3.4132   3.284631   2027.615  800517151  0.000e+00
     3.4126   3.284588   2027.723  800517161  0.000e+00
     3.4117   3.284514   2027.465  800517171  0.000e+00
     3.4115   3.284495   2027.427  800517181  0.000e+00
     3.4118   3.284495   2027.277  800517191  0.000e+00
     3.4123   3.284532   2027.620  800517201  0.000e+00
     3.4119   3.284526   2027.732  800517211  0.000e+00
     3.4116   3.284495   2027.427  800517221  0.000e+00
     3.4115   3.284458   2027.212  800517231  0.000e+00
     3.4113   3.284464   2027.363  800517241  0.000e+00
     3.4111   3.284464   2027.792  800517251  0.000e+00
     3.4113   3.284464   2027.599  800517261  0.000e+00
     3.4112   3.284439   2027.153  800517271  0.000e+00
     3.4114   3.284470   2027.453  800517281  0.000e+00
     3.4116   3.284470   2027.432  800517291  0.000e+00
     3.4113   3.284477   2027.775  800517301  0.000e+00
     3.4106   3.284415   2027.560  800517311  0.000e+00
     3.4068   3.284106   2027.367  800517321  0.000e+00
     3.4069   3.284093   2027.281  800517331  0.000e+00
     3.4078   3.284161   2027.603  800517341  0.000e+00
     3.4092   3.284254   2027.754  800517351  0.000e+00
     3.4108   3.284390   2027.990  800517361  0.000e+00
     3.4102   3.284341   2027.840  800517371  0.000e+00
     3.4090   3.284254   2027.754  800517381  0.000e+00
     3.4111   3.284421   2027.603  800517391  0.000e+00
     3.4115   3.284452   2027.801  800517401  0.000e+00
     3.4142   3.284400   2021.683  800517411  0.000e+00
     3.4219   3.284633   2013.655  800517421  0.000e+00
     3.4359   3.285323   2005.991  800517431  0.000e+00
     3.4496   3.286315   1998.500  800517441  0.000e+00
     3.4544   3.286257   1990.173  800517451  0.000e+00
     3.4608   3.286588   1982.296  800517461  0.000e+00
     3.4692   3.286920   1974.377  800517471  0.000e+00
     3.4786   3.287276   1966.389  800517481  0.000e+00
     3.4877   3.287923   1958.455  800517491  0.000e+00
     3.4960   3.288421   1950.816  800517501  0.000e+00
     3.5137   3.289637   1942.748  800517511  0.000e+00
     3.5414   3.291644   1934.698  800517521  0.000e+00
     3.5703   3.293851   1926.958  800517531  0.000e+00
     3.5658   3.293565   1923.762  800517541  0.000e+00
     3.5674   3.293918   1924.641  800517551  0.000e+00
     3.5709   3.294221   1924.196  800517561  0.000e+00
     3.5747   3.294654   1924.513  800517571  0.000e+00
     3.5745   3.294667   1924.041  800517581  0.000e+00
     3.5751   3.294784   1924.174  800517591  0.000e+00
     3.5753   3.294877   1924.453  800517601  0.000e+00
     3.5760   3.294927   1924.496  800517611  0.000e+00
     3.5767   3.294964   1924.024  800517621  0.000e+00
     3.5767   3.295019   1924.582  800517631  0.000e+00
     3.5771   3.295038   1924.196  800517641  0.000e+00
     3.5770   3.295032   1923.809  800517651  0.000e+00
     3.5774   3.295094   1924.281  800517661  0.000e+00
     3.5784   3.295131   1923.895  800517671  0.000e+00
     3.5788   3.294912   1917.331  800517681  0.000e+00
     3.5828   3.294742   1908.922  800517691  0.000e+00
     3.5941   3.295321   1900.857  800517701  0.000e+00
     3.6261   3.297621   1892.836  800517711  0.000e+00
     3.6323   3.297934   1884.922  800517721  0.000e+00
     3.6367   3.297981   1876.627  800517731  0.000e+00
     3.6399   3.297892   1868.735  800517741  0.000e+00
     3.6464   3.298013   1860.415  800517751  0.000e+00
     3.6624   3.298958   1852.761  800517761  0.000e+00
     3.6714   3.299476   1845.771  800517771  0.000e+00
     3.6743   3.299461   1838.567  800517781  0.000e+00
     3.6806   3.299756   1831.471  800517791  0.000e+00
     3.6819   3.299617   1823.925  800517801  0.000e+00
     3.6792   3.299432   1823.565  800517811  0.000e+00
     3.6803   3.299580   1823.672  800517821  0.000e+00
     3.6803   3.299642   1823.394  800517831  0.000e+00
     3.6806   3.299673   1823.608  800517841  0.000e+00
     3.6814   3.299735   1823.887  800517851  0.000e+00
     3.6811   3.299747   1823.458  800517861  0.000e+00
     3.6819   3.299803   1823.436  800517871  0.000e+00
     3.6819   3.299840   1823.998  800517881  0.000e+00
     3.6826   3.299890   1823.398  800517891  0.000e+00
     3.6831   3.299927   1823.634  800517901  0.000e+00
     3.6827   3.299921   1823.334  800517911  0.000e+00
     3.6825   3.299884   1823.527  800517921  0.000e+00
     3.6822   3.299871   1823.227  800517931  0.000e+00
     3.6823   3.299890   1823.784  800517941  0.000e+00
     3.6823   3.299902   1824.106  800517951  0.000e+00
     3.6822   3.299877   1823.505  800517961  0.000e+00
     3.6824   3.299884   1823.420  800517971  0.000e+00
     3.6821   3.299871   1823.720  800517981  0.000e+00
     3.6820   3.299846   1823.548  800517991  0.000e+00
     3.6822   3.299846   1823.184  800518001  0.000e+00
     3.6820   3.299859   1823.832  800518011  0.000e+00
     3.6816   3.299834   1823.596  800518021  0.000e+00
     3.6812   3.299766   1823.077  800518031  0.000e+00
     3.6816   3.299778   1823.570  800518041  0.000e+00
     3.6812   3.299791   1823.398  800518051  0.000e+00
     3.6812   3.299778   1823.210  800518061  0.000e+00
     3.6815   3.299778   1823.467  800518071  0.000e+00
     3.6811   3.299803   1823.982  800518081  0.000e+00
     3.6812   3.299778   1823.381  800518091  0.000e+00
     3.6814   3.299785   1823.467  800518101  0.000e+00
     3.6813   3.299784   1823.339  800518111  0.000e+00
     3.6816   3.299797   1823.896  800518121  0.000e+00
     3.6815   3.299797   1823.403  800518131  0.000e+00
     3.6814   3.299772   1823.167  800518141  0.000e+00
     3.6814   3.299766   1823.065  800518151  0.000e+00
     3.6814   3.299803   1823.794  800518161  0.000e+00
     3.6814   3.299766   1823.060  800518171  0.000e+00
     3.6810   3.299766   1823.724  800518181  0.000e+00
     3.6807   3.299754   1823.601  800518191  0.000e+00
     3.6807   3.299741   1823.451  800518201  0.000e+00
     3.6804   3.299741   1823.617  800518211  0.000e+00
     3.6806   3.299729   1823.639  800518221  0.000e+00
     3.6808   3.299735   1823.772  800518231  0.000e+00
     3.6806   3.299729   1823.601  800518241  0.000e+00
     3.6806   3.299741   1823.836  800518251  0.000e+00
     3.6808   3.299723   1823.258  800518261  0.000e+00
     3.6805   3.299604   1820.659  800518271  0.000e+00
     3.6800   3.299193   1812.604  800518281  0.000e+00
     3.6797   3.298819   1804.630  800518291  0.000e+00
     3.6854   3.298878   1796.759  800518301  0.000e+00
     3.6838   3.298486   1789.520  800518311  0.000e+00
     3.6874   3.298434   1781.462  800518321  0.000e+00
     3.6901   3.298301   1773.447  800518331  0.000e+00
     3.7096   3.299525   1766.118  800518341  0.000e+00
     3.7151   3.299695   1758.126  800518351  0.000e+00
     3.7196   3.299742   1750.369  800518361  0.000e+00
     3.7233   3.299746   1742.335  800518371  0.000e+00
     3.7226   3.299434   1735.351  800518381  0.000e+00
     3.7303   3.299735   1728.003  800518391  0.000e+00
     3.7315   3.299640   1721.726  800518401  0.000e+00
     3.7302   3.299609   1721.705  800518411  0.000e+00
     3.7316   3.299789   1721.700  800518421  0.000e+00
     3.7318   3.299851   1721.255  800518431  0.000e+00
     3.7325   3.299919   1722.112  800518441  0.000e+00
     3.7321   3.299925   1722.197  800518451  0.000e+00
     3.7326   3.299975   1721.923  800518461  0.000e+00
     3.7326   3.299975   1721.581  800518471  0.000e+00
     3.7325   3.299993   1721.816  800518481  0.000e+00
     3.7328   3.300006   1721.902  800518491  0.000e+00
     3.7330   3.300037   1722.073  800518501  0.000e+00
     3.7330   3.300037   1721.854  800518511  0.000e+00
     3.7356   3.300036   1718.127  800518521  0.000e+00
     3.7201   3.298225   1710.206  800518531  0.000e+00
     3.7221   3.297777   1701.917  800518541  0.000e+00
     3.7276   3.297910   1694.121  800518551  0.000e+00
     3.7499   3.299381   1686.047  800518561  0.000e+00
     3.7584   3.299880   1678.076  800518571  0.000e+00
     3.7693   3.300546   1669.896  800518581  0.000e+00
     3.7748   3.300804   1661.952  800518591  0.000e+00
     3.7855   3.301346   1654.077  800518601  0.000e+00
     3.7876   3.301270   1646.193  800518611  0.000e+00
     3.7984   3.301831   1638.598  800518621  0.000e+00
     3.8102   3.302559   1631.255  800518631  0.000e+00
     3.8162   3.302743   1623.805  800518641  0.000e+00
     3.8291   3.303906   1619.657  800518651  0.000e+00
     3.8184   3.303064   1620.123  800518661  0.000e+00
     3.8241   3.303633   1619.909  800518671  0.000e+00
     3.8290   3.304073   1619.353  800518681  0.000e+00
     3.8325   3.304377   1619.802  800518691  0.000e+00
     3.8323   3.304426   1619.824  800518701  0.000e+00
     3.8329   3.304494   1619.764  800518711  0.000e+00
     3.8331   3.304525   1619.567  800518721  0.000e+00
     3.8330   3.304563   1620.038  800518731  0.000e+00
     3.8327   3.304562   1619.267  800518741  0.000e+00
     3.8330   3.304581   1620.085  800518751  0.000e+00
     3.8330   3.304581   1619.828  800518761  0.000e+00
     3.8330   3.304575   1619.652  800518771  0.000e+00
     3.8325   3.304550   1619.802  800518781  0.000e+00
     3.8329   3.304550   1619.592  800518791  0.000e+00
     3.8325   3.304569   1620.256  800518801  0.000e+00
     3.8326   3.304550   1619.849  800518811  0.000e+00
     3.8327   3.304581   1619.914  800518821  0.000e+00
     3.8333   3.304625   1619.742  800518831  0.000e+00
     3.8331   3.304631   1619.892  800518841  0.000e+00
     3.8330   3.304612   1619.914  800518851  0.000e+00
     3.8327   3.304606   1619.742  800518861  0.000e+00
     3.8328   3.304569   1619.550  800518871  0.000e+00
     3.8333   3.304612   1619.854  800518881  0.000e+00
     3.8324   3.304550   1619.742  800518891  0.000e+00
     3.8325   3.304569   1619.721  800518901  0.000e+00
     3.8343   3.304711   1619.340  800518911  0.000e+00
     3.8345   3.304742   1619.742  800518921  0.000e+00
     3.8331   3.304649   1620.047  800518931  0.000e+00
     3.8338   3.304662   1619.635  800518941  0.000e+00
     3.8355   3.304792   1619.533  800518951  0.000e+00
     3.8341   3.304742   1619.640  800518961  0.000e+00
     3.8351   3.304779   1619.832  800518971  0.000e+00
     3.8352   3.304786   1619.940  800518981  0.000e+00
     3.8359   3.304835   1619.362  800518991  0.000e+00
     3.8354   3.304841   1619.854  800519001  0.000e+00
     3.8365   3.304897   1619.661  800519011  0.000e+00
     3.8364   3.304928   1620.025  800519021  0.000e+00
     3.8363   3.304922   1619.961  800519031  0.000e+00
     3.8364   3.304928   1620.025  800519041  0.000e+00
     3.8373   3.304978   1619.661  800519051  0.000e+00
     3.8370   3.304978   1619.709  800519061  0.000e+00
     3.8406   3.305057   1615.256  800519071  0.000e+00
     3.8527   3.305779   1607.525  800519081  0.000e+00
     3.8594   3.306062   1598.985  800519091  0.000e+00
     3.8718   3.306765   1590.493  800519101  0.000e+00
     3.8925   3.308256   1582.356  800519111  0.000e+00
     3.9051   3.309146   1574.609  800519121  0.000e+00
     3.9127   3.309460   1566.247  800519131  0.000e+00
     3.9286   3.310703   1558.288  800519141  0.000e+00
     3.9371   3.311110   1550.987  800519151  0.000e+00
     3.9418   3.311368   1543.371  800519161  0.000e+00
     3.9467   3.311558   1535.883  800519171  0.000e+00
     3.9570   3.312132   1528.524  800519181  0.000e+00
     3.9626   3.312421   1521.187  800519191  0.000e+00
     3.9629   3.312358   1517.127  800519201  0.000e+00
     3.9607   3.312259   1517.444  800519211  0.000e+00
     3.9607   3.312309   1517.726  800519221  0.000e+00
     3.9610   3.312395   1518.000  800519231  0.000e+00
     3.9615   3.312451   1517.576  800519241  0.000e+00
     3.9624   3.312538   1517.384  800519251  0.000e+00
     3.9625   3.312600   1518.154  800519261  0.000e+00
     3.9633   3.312625   1517.748  800519271  0.000e+00
     3.9635   3.312668   1517.816  800519281  0.000e+00
     3.9635   3.312693   1518.026  800519291  0.000e+00
     3.9636   3.312674   1517.089  800519301  0.000e+00
     3.9629   3.312263   1509.795  800519311  0.000e+00
     3.9775   3.313134   1501.967  800519321  0.000e+00
     3.9877   3.313591   1494.071  800519331  0.000e+00
     3.9957   3.314140   1486.244  800519341  0.000e+00
     4.0192   3.315775   1478.310  800519351  0.000e+00
     4.0319   3.316734   1470.056  800519361  0.000e+00
     4.0466   3.317743   1462.256  800519371  0.000e+00
     4.0563   3.318448   1454.452  800519381  0.000e+00
     4.0653   3.318787   1446.221  800519391  0.000e+00
     4.0756   3.319547   1438.567  800519401  0.000e+00
     4.0832   3.319986   1431.427  800519411  0.000e+00
     4.0882   3.320300   1424.737  800519421  0.000e+00
     4.1417   3.324538   1417.405  800519431  0.000e+00
     4.1801   3.328200   1409.774  800519441  0.000e+00
     4.2030   3.330260   1402.384  800519451  0.000e+00
     4.1637   3.326443   1394.562  800519461  0.000e+00
     4.1493   3.324603   1387.232  800519471  0.000e+00
     4.1537   3.324538   1379.816  800519481  0.000e+00
     4.1749   3.325952   1371.803  800519491  0.000e+00
     4.1889   3.326981   1365.457  800519501  0.000e+00
     4.1850   3.326732   1365.158  800519511  0.000e+00
     4.1924   3.327465   1365.397  800519521  0.000e+00
     4.1937   3.327677   1365.949  800519531  0.000e+00
     4.1930   3.327670   1365.205  800519541  0.000e+00
     4.1937   3.327745   1365.397  800519551  0.000e+00
     4.1936   3.327763   1365.291  800519561  0.000e+00
     4.1933   3.327795   1366.017  800519571  0.000e+00
     4.1934   3.327763   1365.380  800519581  0.000e+00
     4.1930   3.327782   1365.551  800519591  0.000e+00
     4.1932   3.327757   1365.440  800519601  0.000e+00
     4.1929   3.327769   1365.034  800519611  0.000e+00
     4.2035   3.328332   1357.667  800519621  0.000e+00
     4.2176   3.329305   1349.655  800519631  0.000e+00
     4.3254   3.338982   1342.050  800519641  0.000e+00
     4.3749   3.343783   1334.428  800519651  0.000e+00
     4.4118   3.347135   1326.029  800519661  0.000e+00
     4.4203   3.348011   1318.130  800519671  0.000e+00
     4.4302   3.348924   1310.334  800519681  0.000e+00
     4.4448   3.349893   1302.624  800519691  0.000e+00
     4.4379   3.348962   1294.807  800519701  0.000e+00
     4.4257   3.347565   1286.799  800519711  0.000e+00
     4.4031   3.344898   1278.988  800519721  0.000e+00
     4.4454   3.348238   1271.297  800519731  0.000e+00
     4.4550   3.348709   1263.081  800519741  0.000e+00
     4.4886   3.351341   1255.480  800519751  0.000e+00
     4.5147   3.353781   1247.794  800519761  0.000e+00
     4.5458   3.356446   1240.391  800519771  0.000e+00
     4.5621   3.357808   1232.787  800519781  0.000e+00
     4.5804   3.359346   1225.487  800519791  0.000e+00
     4.5888   3.359936   1218.016  800519801  0.000e+00
     4.5861   3.359710   1213.923  800519811  0.000e+00
     4.5829   3.359592   1214.563  800519821  0.000e+00
     4.5805   3.359317   1214.162  800519831  0.000e+00
     4.5753   3.358762   1214.183  800519841  0.000e+00
     4.5744   3.358675   1214.208  800519851  0.000e+00
     4.5745   3.358706   1214.162  800519861  0.000e+00
     4.5746   3.358750   1214.610  800519871  0.000e+00
     4.5756   3.358856   1214.486  800519881  0.000e+00
     4.5755   3.358831   1214.166  800519891  0.000e+00
     4.5754   3.358812   1213.760  800519901  0.000e+00
     4.5752   3.358843   1214.576  800519911  0.000e+00
     4.5752   3.358656   1212.079  800519921  0.000e+00
     4.5837   3.358977   1204.139  800519931  0.000e+00
     4.5803   3.357989   1195.756  800519941  0.000e+00
     4.6458   3.363530   1187.835  800519951  0.000e+00
     4.6458   3.363122   1180.051  800519961  0.000e+00
     4.7051   3.368117   1171.797  800519971  0.000e+00
     4.7569   3.372603   1163.386  800519981  0.000e+00
     4.8123   3.377716   1155.411  800519991  0.000e+00
     4.8762   3.382726   1147.343  800520001  0.000e+00
     4.9731   3.392281   1139.450  800520011  0.000e+00
     4.9807   3.393869   1132.458  800520021  0.000e+00
     5.0565   3.400780   1125.419  800520031  0.000e+00
     5.0729   3.402550   1118.252  800520041  0.000e+00
     5.0819   3.403739   1112.284  800520051  0.000e+00
     5.0796   3.403883   1112.604  800520061  0.000e+00
     5.0899   3.405011   1112.199  800520071  0.000e+00
     5.0926   3.405450   1112.545  800520081  0.000e+00
     5.0952   3.405789   1112.412  800520091  0.000e+00
     5.0903   3.405450   1112.310  800520101  0.000e+00
     5.0855   3.405118   1112.609  800520111  0.000e+00
     5.0871   3.405293   1112.272  800520121  0.000e+00
     5.0861   3.405262   1112.826  800520131  0.000e+00
     5.0872   3.405319   1112.724  800520141  0.000e+00
     5.0856   3.405206   1112.698  800520151  0.000e+00
     5.0889   3.405494   1111.509  800520161  0.000e+00
     5.1006   3.406018   1104.023  800520171  0.000e+00
     5.1383   3.408936   1095.646  800520181  0.000e+00
     5.1667   3.411317   1087.735  800520191  0.000e+00
     5.2373   3.417180   1079.125  800520201  0.000e+00
     5.2897   3.421899   1070.728  800520211  0.000e+00
     5.3118   3.424182   1062.776  800520221  0.000e+00
     5.3528   3.427786   1054.333  800520231  0.000e+00
     5.4118   3.433308   1046.083  800520241  0.000e+00
     5.4835   3.439501   1038.259  800520251  0.000e+00
     5.5231   3.443584   1031.268  800520261  0.000e+00
     5.5550   3.446673   1023.923  800520271  0.000e+00
     5.5779   3.448850   1017.695  800520281  0.000e+00
     5.6178   3.452627   1009.856  800520291  0.000e+00
     5.6822   3.458449   1002.525  800520301  0.000e+00
     5.7152   3.461714    994.837  800520311  0.000e+00
     5.7414   3.463963    986.824  800520321  0.000e+00
     5.7725   3.466422    979.686  800520331  0.000e+00
     5.8264   3.471824    971.701  800520341  0.000e+00
     5.8778   3.476414    964.031  800520351  0.000e+00
     5.9123   3.479476    956.195  800520361  0.000e+00
     5.9727   3.485157    948.633  800520371  0.000e+00
     5.9752   3.485618    943.631  800520381  0.000e+00
     5.9707   3.485618    944.020  800520391  0.000e+00
     5.9693   3.485561    943.811  800520401  0.000e+00
     5.9755   3.486301    943.508  800520411  0.000e+00
     5.9803   3.486876    943.689  800520421  0.000e+00
     5.9788   3.486902    944.072  800520431  0.000e+00
     5.9867   3.487572    943.694  800520441  0.000e+00
     5.9868   3.487705    943.843  800520451  0.000e+00
     5.9953   3.488439    943.614  800520461  0.000e+00
     5.9977   3.488755    943.507  800520471  0.000e+00
     5.9979   3.488863    943.848  800520481  0.000e+00
     5.9948   3.488597    943.832  800520491  0.000e+00
     5.9988   3.488952    943.470  800520501  0.000e+00
     6.0507   3.493094    936.062  800520511  0.000e+00
     6.0667   3.494409    928.484  800520521  0.000e+00
     6.1102   3.498035    920.795  800520531  0.000e+00
     6.2114   3.507170    913.255  800520541  0.000e+00
     6.2582   3.511537    905.381  800520551  0.000e+00
     6.2930   3.514986    897.932  800520561  0.000e+00
     6.3452   3.519414    890.415  800520571  0.000e+00
     6.4173   3.525909    882.728  800520581  0.000e+00
     6.4464   3.529001    875.026  800520591  0.000e+00
     6.5416   3.537653    867.063  800520601  0.000e+00
     6.5494   3.538401    860.186  800520611  0.000e+00
     6.5409   3.538261    860.021  800520621  0.000e+00
     6.5302   3.537580    859.473  800520631  0.000e+00
     6.5422   3.538834    859.691  800520641  0.000e+00
     6.5599   3.540514    859.755  800520651  0.000e+00
     6.5747   3.541946    859.804  800520661  0.000e+00
     6.5787   3.542448    859.463  800520671  0.000e+00
     6.5813   3.542881    859.740  800520681  0.000e+00
     6.5820   3.543021    859.809  800520691  0.000e+00
     6.5690   3.541850    859.660  800520701  0.000e+00
     6.5774   3.542646    859.538  800520711  0.000e+00
     6.6003   3.544395    856.542  800520721  0.000e+00
     6.6882   3.552042    848.303  800520731  0.000e+00
     6.6239   3.545529    839.496  800520741  0.000e+00
     6.7206   3.553572    831.009  800520751  0.000e+00
     6.7709   3.557731    822.863  800520761  0.000e+00
     6.8154   3.561045    815.030  800520771  0.000e+00
     6.8950   3.568317    807.730  800520781  0.000e+00
     6.9937   3.577498    800.075  800520791  0.000e+00
     7.0114   3.579234    792.536  800520801  0.000e+00
     7.0209   3.580126    785.413  800520811  0.000e+00
     7.1061   3.587483    777.951  800520821  0.000e+00
     7.1651   3.592677    770.525  800520831  0.000e+00
     7.2371   3.599186    762.978  800520841  0.000e+00
     7.2797   3.603175    755.602  800520851  0.000e+00
     7.2971   3.604313    748.475  800520861  0.000e+00
     7.3866   3.612376    740.674  800520871  0.000e+00
     7.4430   3.618058    733.357  800520881  0.000e+00
     7.4582   3.618813    725.493  800520891  0.000e+00
     7.6494   3.636280    718.034  800520901  0.000e+00
     7.9633   3.667961    710.718  800520911  0.000e+00
     7.9359   3.667985    706.535  800520921  0.000e+00
     7.8554   3.660696    706.435  800520931  0.000e+00
     7.9604   3.671690    706.222  800520941  0.000e+00
     7.9522   3.671600    706.894  800520951  0.000e+00
     7.9653   3.672898    707.149  800520961  0.000e+00
     7.9813   3.674945    706.837  800520971  0.000e+00
     7.9817   3.675261    706.716  800520981  0.000e+00
     7.9818   3.675410    706.723  800520991  0.000e+00
     7.9809   3.675455    706.963  800521001  0.000e+00
     7.9847   3.675849    706.821  800521011  0.000e+00
     7.9797   3.675546    707.020  800521021  0.000e+00
     7.9807   3.675623    706.467  800521031  0.000e+00
     7.9830   3.675823    706.665  800521041  0.000e+00
     7.9858   3.676198    707.076  800521051  0.000e+00
     7.9874   3.676372    706.764  800521061  0.000e+00
     7.9868   3.676379    706.793  800521071  0.000e+00
     7.9901   3.676715    706.630  800521081  0.000e+00
     7.9911   3.676838    707.289  800521091  0.000e+00
     7.9946   3.677180    706.701  800521101  0.000e+00
     7.9950   3.677238    706.559  800521111  0.000e+00
     7.9946   3.677212    706.708  800521121  0.000e+00
     7.9947   3.677225    706.801  800521131  0.000e+00
     7.9934   3.677167    706.766  800521141  0.000e+00
     7.9935   3.677128    706.808  800521151  0.000e+00
     7.9945   3.677264    707.007  800521161  0.000e+00
     7.9957   3.677328    706.433  800521171  0.000e+00
     8.0004   3.677761    705.327  800521181  0.000e+00
     8.1060   3.686910    697.955  800521191  0.000e+00
     8.1204   3.687961    689.946  800521201  0.000e+00
     8.1707   3.692286    682.269  800521211  0.000e+00
     8.1463   3.690280    680.682  800521221  0.000e+00
     8.1502   3.691056    680.754  800521231  0.000e+00
     8.1502   3.691302    680.810  800521241  0.000e+00
     8.1461   3.690966    680.732  800521251  0.000e+00
     8.1838   3.694272    680.825  800521261  0.000e+00
     8.2012   3.696020    680.953  800521271  0.000e+00
     8.1998   3.696059    680.663  800521281  0.000e+00
     8.2067   3.696758    680.408  800521291  0.000e+00
     8.2044   3.696687    680.940  800521301  0.000e+00
     8.2043   3.696706    680.522  800521311  0.000e+00
     8.2272   3.698601    675.980  800521321  0.000e+00
     8.2848   3.703319    667.837  800521331  0.000e+00
     8.3503   3.709051    659.957  800521341  0.000e+00
     8.3874   3.712257    652.154  800521351  0.000e+00
     8.4551   3.717820    644.424  800521361  0.000e+00
     8.5318   3.724963    636.389  800521371  0.000e+00
     8.5780   3.728512    628.800  800521381  0.000e+00
     8.6905   3.738205    620.851  800521391  0.000e+00
     8.7643   3.745058    613.037  800521401  0.000e+00
     8.7896   3.747359    605.131  800521411  0.000e+00
     8.7676   3.746097    605.160  800521421  0.000e+00
     8.7757   3.747262    605.330  800521431  0.000e+00
     8.7767   3.747424    604.977  800521441  0.000e+00
     8.7859   3.748368    605.793  800521451  0.000e+00
     8.7896   3.748947    605.198  800521461  0.000e+00
     8.7908   3.749084    605.220  800521471  0.000e+00
     8.7901   3.749091    604.930  800521481  0.000e+00
     8.7894   3.749091    605.619  800521491  0.000e+00
     8.7895   3.749143    605.173  800521501  0.000e+00
     8.7902   3.749221    605.041  800521511  0.000e+00
     8.7920   3.749298    603.260  800521521  0.000e+00
     8.8409   3.752922    595.031  800521531  0.000e+00
     8.9477   3.762745    587.517  800521541  0.000e+00
     9.0460   3.772219    579.698  800521551  0.000e+00
     9.1021   3.777633    571.250  800521561  0.000e+00
     9.1385   3.781229    563.185  800521571  0.000e+00
     9.2009   3.786760    555.697  800521581  0.000e+00
     9.2289   3.789810    547.506  800521591  0.000e+00
     9.3178   3.797865    539.879  800521601  0.000e+00
     9.4048   3.806896    532.453  800521611  0.000e+00
     9.4367   3.810156    525.019  800521621  0.000e+00
     9.4668   3.813043    518.189  800521631  0.000e+00
     9.4684   3.813447    511.392  800521641  0.000e+00
     9.4541   3.811609    503.743  800521651  0.000e+00
     9.5015   3.815650    496.586  800521661  0.000e+00
     9.5592   3.821215    489.269  800521671  0.000e+00
     9.5804   3.823429    481.561  800521681  0.000e+00
     9.6009   3.825211    474.541  800521691  0.000e+00
     9.6289   3.827952    467.150  800521701  0.000e+00
     9.6681   3.831461    459.200  800521711  0.000e+00
     9.6683   3.831578    455.642  800521721  0.000e+00
     9.6660   3.831670    455.915  800521731  0.000e+00
     9.6713   3.832274    455.652  800521741  0.000e+00
     9.6718   3.832340    455.894  800521751  0.000e+00
     9.6739   3.832642    456.116  800521761  0.000e+00
     9.6742   3.832754    455.840  800521771  0.000e+00
     9.6755   3.832892    455.722  800521781  0.000e+00
     9.6746   3.832865    456.092  800521791  0.000e+00
     9.6744   3.832885    456.177  800521801  0.000e+00
     9.6746   3.832878    455.741  800521811  0.000e+00
     9.6751   3.832944    455.592  800521821  0.000e+00
     9.6751   3.832944    455.835  800521831  0.000e+00
     9.6756   3.833017    456.099  800521841  0.000e+00
     9.6749   3.832970    455.833  800521851  0.000e+00
     9.6755   3.833010    456.024  800521861  0.000e+00
     9.6758   3.833056    455.791  800521871  0.000e+00
     9.6753   3.832997    455.600  800521881  0.000e+00
     9.6745   3.832931    455.737  800521891  0.000e+00
     9.6740   3.832912    456.374  800521901  0.000e+00
     9.6746   3.832931    456.001  800521911  0.000e+00
     9.6736   3.832852    455.608  800521921  0.000e+00
     9.6739   3.832872    456.075  800521931  0.000e+00
     9.6733   3.832833    456.075  800521941  0.000e+00
     9.6751   3.832957    455.512  800521951  0.000e+00
     9.6755   3.833023    455.682  800521961  0.000e+00
     9.6741   3.832931    455.989  800521971  0.000e+00
     9.6731   3.832832    455.458  800521981  0.000e+00
     9.6728   3.832760    455.755  800521991  0.000e+00
     9.6736   3.832826    456.010  800522001  0.000e+00
     9.6723   3.832728    455.978  800522011  0.000e+00
     9.6715   3.832636    455.893  800522021  0.000e+00
     9.6720   3.832649    455.563  800522031  0.000e+00
     9.6737   3.832826    455.787  800522041  0.000e+00
     9.6719   3.832662    455.924  800522051  0.000e+00
     9.6713   3.832616    455.903  800522061  0.000e+00
     9.6710   3.832596    455.849  800522071  0.000e+00
     9.6711   3.832596    455.563  800522081  0.000e+00
     9.6707   3.832531    455.934  800522091  0.000e+00
     9.6701   3.832504    455.616  800522101  0.000e+00
     9.6701   3.832511    456.083  800522111  0.000e+00
     9.6698   3.832491    455.956  800522121  0.000e+00
     9.6695   3.832412    455.616  800522131  0.000e+00
     9.6698   3.832452    455.510  800522141  0.000e+00
     9.6692   3.832445    456.284  800522151  0.000e+00
     9.6695   3.832419    455.796  800522161  0.000e+00
     9.6693   3.832425    455.849  800522171  0.000e+00
     9.6692   3.832399    455.987  800522181  0.000e+00
     9.6693   3.832406    455.934  800522191  0.000e+00
     9.6690   3.832379    455.807  800522201  0.000e+00
     9.6693   3.832393    455.891  800522211  0.000e+00
     9.6693   3.832373    455.499  800522221  0.000e+00
     9.6692   3.832393    456.104  800522231  0.000e+00
     9.6692   3.832379    455.838  800522241  0.000e+00
     9.6690   3.832366    455.753  800522251  0.000e+00
     9.6692   3.832353    455.424  800522261  0.000e+00
     9.6783   3.832962    451.146  800522271  0.000e+00
     9.7334   3.837590    443.217  800522281  0.000e+00
     9.7939   3.842661    434.821  800522291  0.000e+00
     9.8668   3.849471    426.925  800522301  0.000e+00
     9.9201   3.854673    418.838  800522311  0.000e+00
     9.9821   3.860583    410.931  800522321  0.000e+00
    10.0314   3.864960    402.867  800522331  0.000e+00
    10.0858   3.870317    396.266  800522341  0.000e+00
    10.0821   3.870274    388.924  800522351  0.000e+00
    10.0815   3.869448    382.017  800522361  0.000e+00
    10.0772   3.868740    374.994  800522371  0.000e+00
    10.0774   3.867972    367.121  800522381  0.000e+00
    10.2292   3.883650    359.834  800522391  0.000e+00
    10.2431   3.885522    353.373  800522401  0.000e+00
    10.2302   3.884717    353.458  800522411  0.000e+00
    10.2272   3.884519    353.978  800522421  0.000e+00
    10.2332   3.885351    354.105  800522431  0.000e+00
    10.2369   3.885879    353.511  800522441  0.000e+00
    10.2356   3.885846    353.564  800522451  0.000e+00
    10.2341   3.885767    353.564  800522461  0.000e+00
    10.2338   3.885774    353.988  800522471  0.000e+00
    10.2320   3.885529    353.744  800522481  0.000e+00
    10.2308   3.885463    353.850  800522491  0.000e+00
    10.2286   3.885166    353.341  800522501  0.000e+00
    10.2288   3.885159    353.522  800522511  0.000e+00
    10.2522   3.887131    346.446  800522521  0.000e+00
    10.2081   3.882169    337.887  800522531  0.000e+00
    10.0578   3.864683    330.038  800522541  0.000e+00
    10.0588   3.862795    322.158  800522551  0.000e+00
    10.0847   3.864196    314.035  800522561  0.000e+00
    10.1362   3.867843    306.633  800522571  0.000e+00
    10.1382   3.868013    303.039  800522581  0.000e+00
    10.1199   3.866761    303.081  800522591  0.000e+00
    10.1217   3.866893    303.611  800522601  0.000e+00
    10.1283   3.867289    303.166  800522611  0.000e+00
    10.1313   3.867638    303.346  800522621  0.000e+00
    10.1311   3.867658    303.240  800522631  0.000e+00
    10.1333   3.867829    303.622  800522641  0.000e+00
    10.1314   3.867743    303.103  800522651  0.000e+00
    10.1342   3.867908    303.219  800522661  0.000e+00
    10.1359   3.868086    303.304  800522671  0.000e+00
    10.1415   3.868328    299.158  800522681  0.000e+00
    10.2351   3.876449    290.750  800522691  0.000e+00
    10.3313   3.885924    282.967  800522701  0.000e+00
    10.4587   3.898469    274.666  800522711  0.000e+00
    10.5525   3.909118    266.461  800522721  0.000e+00
    10.6490   3.919367    258.468  800522731  0.000e+00
    10.7065   3.925595    250.624  800522741  0.000e+00
    10.7528   3.930673    244.063  800522751  0.000e+00
    10.7970   3.935228    236.972  800522761  0.000e+00
    10.8316   3.938399    229.659  800522771  0.000e+00
    10.8505   3.939863    221.839  800522781  0.000e+00
    10.8809   3.942968    214.325  800522791  0.000e+00
    10.9219   3.946599    206.982  800522801  0.000e+00
    10.9538   3.949554    198.971  800522811  0.000e+00
    11.0016   3.954630    191.565  800522821  0.000e+00
    11.0209   3.956363    184.127  800522831  0.000e+00
    11.0643   3.960645    175.960  800522841  0.000e+00
    11.0798   3.961880    168.671  800522851  0.000e+00
    11.1110   3.964892    161.097  800522861  0.000e+00
    11.1316   3.966800    152.941  800522871  0.000e+00
    11.1632   3.969734    145.548  800522881  0.000e+00
    11.2639   3.980087    138.124  800522891  0.000e+00
    11.3162   3.986013    130.509  800522901  0.000e+00
    11.3158   3.985843    122.514  800522911  0.000e+00
    11.3096   3.984880    115.355  800522921  0.000e+00
    11.3024   3.983576    107.488  800522931  0.000e+00
    11.2833   3.980692    100.076  800522941  0.000e+00
    11.3070   3.982456     92.019  800522951  0.000e+00
    11.3175   3.983280     85.022  800522961  0.000e+00
    11.3116   3.981950     77.886  800522971  0.000e+00
    11.3147   3.981314     70.751  800522981  0.000e+00
    11.3115   3.979604     64.157  800522991  0.000e+00
    11.3295   3.980968     56.441  800523001  0.000e+00
    11.3552   3.982305     48.545  800523011  0.000e+00
    11.4343   3.988733     41.390  800523021  0.000e+00
    11.5358   3.997015     33.929  800523031  0.000e+00
    11.5830   4.001062     30.321  800523041  0.000e+00
    11.6431   4.007265     31.020  800523051  0.000e+00
    11.6900   4.011671     30.723  800523061  0.000e+00
    11.6843   4.012628     30.862  800523071  0.000e+00
    11.6517   4.009511     30.894  800523081  0.000e+00
    11.6559   4.009699     30.894  800523091  0.000e+00
    11.6734   4.011324     31.075  800523101  0.000e+00
    11.6728   4.011397     30.917  800523111  0.000e+00
    11.6631   4.010581     30.832  800523121  0.000e+00
    11.7043   4.014160     29.532  800523131  0.000e+00
    11.8858   4.029431     27.382  800523141  0.000e+00
    12.0600   4.045867     25.510  800523151  0.000e+00
    12.1012   4.050773     23.427  800523161  0.000e+00
    12.1150   4.052566     21.628  800523171  0.000e+00
    12.1541   4.056555     19.523  800523181  0.000e+00
    12.2455   4.064895     16.000  800523191  0.000e+00
    12.3380   4.074150      9.863  800523201  0.000e+00
    12.3480   4.075784      5.050  800523211  0.000e+00
    12.3444   4.076074      5.960  800523221  0.000e+00
    12.3574   4.077710      5.273  800523231  0.000e+00
    12.3609   4.078181      5.327  800523241  0.000e+00
    12.3585   4.078188      5.212  800523251  0.000e+00
    12.3590   4.078376      5.457  800523261  0.000e+00
    12.3579   4.078376      5.394  800523271  0.000e+00
    12.3576   4.078424      5.587  800523281  0.000e+00
    12.3568   4.078383      5.566  800523291  0.000e+00
    12.3593   4.078632      5.291  800523301  0.000e+00
    12.3638   4.078894      2.552  800523311  0.000e+00
    12.3727   3.800801      0.829  800523321  0.000e+00
    12.3758   2.458256      0.778  800523331  0.000e+00
    12.3755   2.045221      0.702  800523341  0.000e+00
    12.3765   2.044825      0.757  800523351  0.000e+00
    12.3793   2.038944      0.748  800523361  0.000e+00
    12.3817   2.045908      0.719  800523371  0.000e+00
    12.3912   2.046387      0.740  800523381  0.000e+00
    12.4061   2.047012      0.710  800523391  0.000e+00
    12.4158   0.001083      0.752  800523401  0.000e+00
    12.4293   0.000234      0.765  800523411  0.000e+00
    12.4425   0.000219      0.765  800523421  0.000e+00
    12.4589   0.000213      0.714  800523431  0.000e+00
    12.4755   0.000204      0.757  800523441  0.000e+00
    12.4961   0.000201      0.736  800523451  0.000e+00
    12.5120   0.000207      0.748  800523461  0.000e+00
    12.5367   0.000219      0.677  800523471  0.000e+00
    12.5533   0.000219      0.732  800523481  0.000e+00
    12.5821   0.000222      0.677  800523491  0.000e+00
    12.6107   0.000219      0.669  800523501  0.000e+00
    12.6400   0.000219      0.669  800523511  0.000e+00
    12.6612   0.000219      0.711  800523521  0.000e+00
    12.6805   0.000219      0.660  800523531  0.000e+00
    12.6967   0.000219      0.652  800523541  0.000e+00
    12.7220   0.000216      0.682  800523551  0.000e+00
    12.7482   0.000219      0.695  800523561  0.000e+00
    12.7640   0.000219      0.708  800523571  0.000e+00
    12.7905   0.000216      0.666  800523581  0.000e+00
    12.8112   0.000216      0.658  800523591  0.000e+00
    12.8384   0.000219      0.679  800523601  0.000e+00
    12.8630   0.000222      0.594  800523611  0.000e+00
    12.8874   0.000216      0.594  800523621  0.000e+00
    12.9116   0.000216      0.629  800523631  0.000e+00
    12.9408   0.000219      0.692  800523641  0.000e+00
    12.9609   0.000216      0.650  800523651  0.000e+00
    12.9799   0.000216      0.629  800523661  0.000e+00
    13.0058   0.000228      0.629  800523671  0.000e+00
    13.0260   0.000219      0.684  800523681  0.000e+00
    13.0452   0.000216      0.613  800523691  0.000e+00
    13.0651   0.000216      0.684  800523701  0.000e+00
    13.0823   0.000216      0.613  800523711  0.000e+00
    13.0990   0.000213      0.627  800523721  0.000e+00
    13.1117   0.000216      0.669  800523731  0.000e+00
    13.1323   0.000213      0.606  800523741  0.000e+00
    13.1473   0.000216      0.585  800523751  0.000e+00
    13.1623   0.000213      0.754  800523761  0.000e+00
    13.1801   0.000213      0.585  800523771  0.000e+00
    13.1940   0.000213      0.640  800523781  0.000e+00
    13.2069   0.000213      0.619  800523791  0.000e+00
    13.2193   0.000216      0.612  800523801  0.000e+00
    13.2323   0.000213      0.654  800523811  0.000e+00
    13.2422   0.000213      0.591  800523821  0.000e+00
    13.2562   0.000213      0.604  800523831  0.000e+00
    13.2667   0.000213      0.647  800523841  0.000e+00
    13.2773   0.000213      0.633  800523851  0.000e+00
    13.2903   0.000213      0.604  800523861  0.000e+00
    13.3087   0.000216      0.626  800523871  0.000e+00
    13.3216   0.000216      0.639  800523881  0.000e+00
    13.3296   0.000213      0.639  800523891  0.000e+00
    13.3383   0.000213      0.576  800523901  0.000e+00
    13.3502   0.000216      0.675  800523911  0.000e+00
    13.3585   0.000213      0.639  800523921  0.000e+00
    13.3693   0.000216      0.632  800523931  0.000e+00
    13.3832   0.000213      0.632  800523941  0.000e+00
    13.3899   0.000213      0.611  800523951  0.000e+00
    13.3958   0.000213      0.625  800523961  0.000e+00
    13.4056   0.000213      0.562  800523971  0.000e+00
    13.4164   0.000213      0.900  800523981  0.000e+00
    13.4303   0.000216      0.533  800523991  0.000e+00
    13.4394   0.000216      0.540  800524001  0.000e+00
    13.4480   0.000213      0.512  800524011  0.000e+00
    13.4575   0.000213      0.576  800524021  0.000e+00
    13.4657   0.000213      0.590  800524031  0.000e+00
    13.4741   0.000213      0.576  800524041  0.000e+00
    13.4854   0.000213      0.611  800524051  0.000e+00
    13.4967   0.000210      0.611  800524061  0.000e+00
    13.5019   0.000213      0.569  800524071  0.000e+00
    13.5092   0.000213      0.625  800524081  0.000e+00
    13.5213   0.000213      0.569  800524091  0.000e+00
    13.5308   0.000213      0.562  800524101  0.000e+00
    13.5383   0.000213      0.625  800524111  0.000e+00
    13.5481   0.000213      0.639  800524121  0.000e+00
    13.5595   0.000213      0.618  800524131  0.000e+00
    13.5656   0.000210      0.576  800524141  0.000e+00
    13.5736   0.000213      0.639  800524151  0.000e+00
    13.5848   0.000213      0.611  800524161  0.000e+00
    13.5921   0.000213      0.590  800524171  0.000e+00
    13.5990   0.000213      0.675  800524181  0.000e+00
    13.6053   0.000213      0.639  800524191  0.000e+00
    13.6135   0.000213      0.611  800524201  0.000e+00
    13.6207   0.000213      0.357  800524211  0.000e+00
    13.6302   0.000213      0.605  800524221  0.000e+00
    13.6350   0.000213      0.583  800524231  0.000e+00
    13.6456   0.000216      0.626  800524241  0.000e+00
    13.6519   0.000213      0.605  800524251  0.000e+00
    13.6585   0.000213      0.668  800524261  0.000e+00
    13.6634   0.000213      0.605  800524271  0.000e+00
    13.6695   0.000213      0.577  800524281  0.000e+00
    13.6773   0.000213      0.655  800524291  0.000e+00
    13.6850   0.000210      0.598  800524301  0.000e+00
    13.6908   0.000210      0.655  800524311  0.000e+00
    13.7003   0.000213      0.619  800524321  0.000e+00
    13.7049   0.000213      0.655  800524331  0.000e+00
    13.7088   0.000213      0.422  800524341  0.000e+00
    13.7107   0.000213      0.655  800524351  0.000e+00
    13.7138   0.000213      0.634  800524361  0.000e+00
    13.7157   0.000210      0.655  800524371  0.000e+00
    13.7219   0.000213      0.634  800524381  0.000e+00
    13.7284   0.000213      0.648  800524391  0.000e+00
    13.7315   0.000213      0.627  800524401  0.000e+00
    13.7355   0.000210      0.627  800524411  0.000e+00
    13.7375   0.000213      0.648  800524421  0.000e+00
    13.7398   0.000210      0.606  800524431  0.000e+00
    13.7433   0.000210      0.578  800524441  0.000e+00
    13.7457   0.000210      0.642  800524451  0.000e+00
    13.7514   0.000210      0.642  800524461  0.000e+00
    13.7538   0.000213      0.494  800524471  0.000e+00
    13.7564   0.000213      0.663  800524481  0.000e+00
    13.7585   0.000213      0.635  800524491  0.000e+00
    13.7603   0.000213      0.650  800524501  0.000e+00
    13.7646   0.000213      0.635  800524511  0.000e+00
    13.7680   0.000213      0.614  800524521  0.000e+00
    13.7728   0.000213      0.614  800524531  0.000e+00
    13.7765   0.000213      0.714  800524541  0.000e+00
    13.7762   0.000213      0.671  800524551  0.000e+00
    13.7773   0.000213      0.671  800524561  0.000e+00
    13.7792   0.000213      0.693  800524571  0.000e+00
    13.7842   0.000216      0.530  800524581  0.000e+00
    13.7841   0.000213      0.650  800524591  0.000e+00
    13.7839   0.000216      0.714  800524601  0.000e+00
    13.7870   0.000213      0.729  800524611  0.000e+00
    13.7907   0.000213      0.686  800524621  0.000e+00
    13.8004   0.000213      0.665  800524631  0.000e+00
    13.8064   0.000216      0.608  800524641  0.000e+00
    13.8082   0.000216      0.629  800524651  0.000e+00
    13.8113   0.000213      0.644  800524661  0.000e+00
    13.8154   0.000213      0.644  800524671  0.000e+00
    13.8236   0.000213      0.644  800524681  0.000e+00
    13.8251   0.000213      0.680  800524691  0.000e+00
    13.8297   0.000216      0.617  800524701  0.000e+00
    13.8330   0.000213      0.610  800524711  0.000e+00
    13.8367   0.000216      0.638  800524721  0.000e+00
    13.8428   0.000213      0.680  800524731  0.000e+00
    13.8421   0.000213      0.632  800524741  0.000e+00
    13.8449   0.000216      0.568  800524751  0.000e+00
    13.8535   0.000213      0.653  800524761  0.000e+00
    13.8584   0.000216      0.632  800524771  0.000e+00
    13.8600   0.000213      0.589  800524781  0.000e+00
    13.8644   0.000213      0.632  800524791  0.000e+00
    13.8653   0.000216      0.632  800524801  0.000e+00
    13.8659   0.000213      0.653  800524811  0.000e+00
    13.8676   0.000216      0.647  800524821  0.000e+00
    13.8746   0.000213      0.626  800524831  0.000e+00
    13.8723   0.000213      0.647  800524841  0.000e+00
    13.8734   0.000213      0.710  800524851  0.000e+00
    13.8735   0.000213      0.668  800524861  0.000e+00
    13.8836   0.000216      0.668  800524871  0.000e+00
    13.8933   0.000216      0.668  800524881  0.000e+00
    13.9092   0.000216      0.620  800524891  0.000e+00
    13.9146   0.000213      0.556  800524901  0.000e+00
    13.9146   0.000213      0.598  800524911  0.000e+00
    13.9166   0.000213      0.620  800524921  0.000e+00
    13.9187   0.000213      0.598  800524931  0.000e+00
    13.9191   0.000216      0.550  800524941  0.000e+00
    13.9211   0.000213      0.614  800524951  0.000e+00
    13.9228   0.000216      0.577  800524961  0.000e+00
    13.9198   0.000213      0.677  800524971  0.000e+00
    13.9210   0.000213      0.635  800524981  0.000e+00
    13.9287   0.000213      0.614  800524991  0.000e+00
    13.9402   0.000210      0.614  800525001  0.000e+00
    14.0975   0.000213      0.656  800525011  0.000e+00
    14.1006   0.000210      0.677  800525021  0.000e+00
    14.0653   0.000213      0.671  800525031  0.000e+00
    14.0834   0.000210      0.671  800525041  0.000e+00
    14.1052   0.000210      0.756  800525051  0.000e+00
    14.1217   0.000213      0.841  800525061  0.000e+00
    14.1350   0.000210      0.856  800525071  0.000e+00
    14.1488   0.000210      0.893  800525081  0.000e+00
    14.1606   0.000210      0.956  800525091  0.000e+00
    14.1699   0.000210      0.956  800525101  0.000e+00
    14.1785   0.000210      0.956  800525111  0.000e+00
    14.1875   0.000210      0.972  800525121  0.000e+00
    14.1972   0.000210      1.056  800525131  0.000e+00
    14.2055   0.000210      1.056  800525141  0.000e+00
    14.2147   0.000210      1.030  800525151  0.000e+00
    14.2217   0.000210      1.078  800525161  0.000e+00
    14.2278   0.000210      1.056  800525171  0.000e+00
    14.2364   0.000210      1.114  800525181  0.000e+00
    14.2489   0.000210      1.093  800525191  0.000e+00
    14.2595   0.000210      1.088  800525201  0.000e+00
    14.2708   0.000210      1.003  800525211  0.000e+00
    14.2823   0.000210      1.019  800525221  0.000e+00
    14.2927   0.000210      1.019  800525231  0.000e+00
    14.3053   0.000210      0.992  800525241  0.000e+00
    14.3164   0.000210      0.998  800525251  0.000e+00
    14.3209   0.000210      1.077  800525261  0.000e+00
    14.3325   0.000207      1.014  800525271  0.000e+00
    14.3424   0.000210      0.992  800525281  0.000e+00
    14.3539   0.000207      1.014  800525291  0.000e+00
    14.3644   0.000210      0.992  800525301  0.000e+00
    14.3752   0.000210      0.950  800525311  0.000e+00
    14.3853   0.000210      1.008  800525321  0.000e+00
    14.3895   0.000207      1.072  800525331  0.000e+00
    14.4004   0.000210      1.045  800525341  0.000e+00
    14.4102   0.000207      1.024  800525351  0.000e+00
    14.4223   0.000207      0.987  800525361  0.000e+00
    14.4350   0.000207      0.982  800525371  0.000e+00
    14.4487   0.000210      1.083  800525381  0.000e+00
    14.4613   0.000207      1.321  800525391  0.000e+00
    14.4738   0.000210      0.998  800525401  0.000e+00
    14.4854   0.000210      0.977  800525411  0.000e+00
    14.4976   0.000210      0.977  800525421  0.000e+00
    14.5078   0.000210      0.913  800525431  0.000e+00
    14.5197   0.000207      0.977  800525441  0.000e+00
    14.5316   0.000207      1.014  800525451  0.000e+00
    14.5450   0.000207      0.977  800525461  0.000e+00
    14.5583   0.000210      0.993  800525471  0.000e+00
    14.5705   0.000210      0.993  800525481  0.000e+00
    14.5836   0.000210      1.009  800525491  0.000e+00
    14.5963   0.000210      0.929  800525501  0.000e+00
    14.6089   0.000210      0.951  800525511  0.000e+00
    14.6212   0.000210      0.946  800525521  0.000e+00
    14.6335   0.000207      0.946  800525531  0.000e+00
    14.6453   0.000207      0.903  800525541  0.000e+00
    14.6572   0.000210      0.903  800525551  0.000e+00
    14.6710   0.000211      0.840  800525561  0.000e+00
    14.6848   0.000211      0.920  800525571  0.000e+00
    14.6966   0.000208      0.898  800525581  0.000e+00
    14.7086   0.000208      0.941  800525591  0.000e+00
    14.7209   0.000208      0.978  800525601  0.000e+00
    14.7331   0.000211      0.856  800525611  0.000e+00
    14.7422   0.000208      0.920  800525621  0.000e+00
    14.7583   0.000208      0.898  800525631  0.000e+00
    14.7711   0.000208      0.877  800525641  0.000e+00
    14.7844   0.000208      0.872  800525651  0.000e+00
    14.7976   0.000208      0.894  800525661  0.000e+00
    14.8102   0.000208      0.915  800525671  0.000e+00
    14.8192   0.000208      0.851  800525681  0.000e+00
    14.8289   0.000205      0.910  800525691  0.000e+00
    14.8407   0.000208      0.825  800525701  0.000e+00
    14.8530   0.000205      0.910  800525711  0.000e+00
    14.8638   0.000205      0.825  800525721  0.000e+00
    14.8752   0.000208      1.037  800525731  0.000e+00
    14.8857   0.000208      0.863  800525741  0.000e+00
    14.8979   0.000205      0.868  800525751  0.000e+00
    14.9095   0.000208      0.926  800525761  0.000e+00
    14.9200   0.000208      0.905  800525771  0.000e+00
    14.9310   0.000208      0.926  800525781  0.000e+00
    14.9384   0.000208      0.905  800525791  0.000e+00
    14.9501   0.000208      0.901  800525801  0.000e+00
    14.9620   0.000208      0.884  800525811  0.000e+00
    14.9738   0.000208      0.842  800525821  0.000e+00
    14.9871   0.000208      0.858  800525831  0.000e+00
    14.9970   0.000208      0.922  800525841  0.000e+00
    15.0074   0.000208      0.879  800525851  0.000e+00
    15.0181   0.000208      0.943  800525861  0.000e+00
    15.0280   0.000208      0.985  800525871  0.000e+00
    15.0358   0.000208      0.858  800525881  0.000e+00
    15.0462   0.000208      0.896  800525891  0.000e+00
    15.0566   0.000208      0.896  800525901  0.000e+00
    15.0652   0.000208      0.854  800525911  0.000e+00
    15.0744   0.000208      0.892  800525921  0.000e+00
    15.0839   0.000205      0.854  800525931  0.000e+00
    15.0928   0.000208      0.913  800525941  0.000e+00
    15.1019   0.000208      0.870  800525951  0.000e+00
    15.1099   0.000205      0.833  800525961  0.000e+00
    15.1213   0.000208      0.833  800525971  0.000e+00
    15.1306   0.000208      0.828  800525981  0.000e+00
    15.1375   0.000208      0.870  800525991  0.000e+00
    15.1424   0.000208      0.849  800526001  0.000e+00
    15.1475   0.000208      0.892  800526011  0.000e+00
    15.1567   0.000208      0.887  800526021  0.000e+00
    15.1647   0.000208      0.828  800526031  0.000e+00
    15.1728   0.000205      0.908  800526041  0.000e+00
    15.1791   0.000205      0.925  800526051  0.000e+00
    15.1891   0.000208      0.845  800526061  0.000e+00
    15.1971   0.000208      0.824  800526071  0.000e+00
    15.2046   0.000205      0.824  800526081  0.000e+00
    15.2122   0.000208      0.883  800526091  0.000e+00
    15.2090   0.000208      0.841  800526101  0.000e+00
    15.1892   0.000211      0.824  800526111  0.000e+00
    15.2259   0.000211      0.841  800526121  0.000e+00
