* Sea-Bird SBE37SMP-RS232  Data File:
* FileName = C:\CE25007_recovery_data\23829_cal_dip_data.hex
* Software version SeatermV2 2.8.0.119
* Temperature SN = 23829
* Conductivity SN = 23829
* System UpLoad Time = May 14 2025 09:25:46
* sample interval = 10 seconds
* <ApplicationData>
* <Seaterm232>
* <SoftwareVersion>2.8.0.119</SoftwareVersion>
* <BuildDate>07-Nov-2018</BuildDate>
* </Seaterm232>
* </ApplicationData>
* <InstrumentState>
* <HardwareData DeviceType='SBE37SMP-RS232' SerialNumber='03723829'>
*
*    <Manufacturer>Sea-Bird Scientific</Manufacturer>
*
*    <FirmwareVersion>6.2.0</FirmwareVersion>
*
*    <FirmwareDate>May  1 2019 13:15:54</FirmwareDate>
*
*    <CommandSetVersion>1.3</CommandSetVersion>
*
*    <PCBAssembly SerialNum='252744' AssemblyNum='41661E'/>
*
*    <PCBAssembly SerialNum='252164' AssemblyNum='41783S'/>
*
*    <PCBAssembly SerialNum='252184' AssemblyNum='41785C'/>
*
*    <MfgDate>29Nov2021</MfgDate>
*
*    <FirmwareLoader>SBE 37-232-V3 FirmwareLoader V 1.0</FirmwareLoader>
*
*    <InternalSensors>
*
*       <Sensor id='Temperature'>
*
*          <type>temperature-1</type>
*
*          <SerialNumber>03723829</SerialNumber>
*
*       </Sensor>
*
*       <Sensor id='Conductivity'>
*
*          <type>conductivity-1</type>
*
*          <SerialNumber>03723829</SerialNumber>
*
*       </Sensor>
*
*       <Sensor id='Pressure'>
*
*          <type>strain-0</type>
*
*          <SerialNumber>5829995</SerialNumber>
*
*       </Sensor>
*
*    </InternalSensors>
*
* </HardwareData>
* <StatusData DeviceType='SBE37SMP-RS232' SerialNumber='03723829'>
*
*    <DateTime>2025-05-14T09:23:28</DateTime>
*
*    <EventSummary numEvents='12'/>
*
*    <Power>
*
*       <vMain>13.31</vMain>
*
*       <vLith> 3.00</vLith>
*
*    </Power>
*
*    <MemorySummary>
*
*       <Bytes>715215</Bytes>
*
*       <Samples>47681</Samples>
*
*       <SamplesFree>511559</SamplesFree>
*
*       <SampleLength>15</SampleLength>
*
*    </MemorySummary>
*
*    <AutonomousSampling>no, stop command</AutonomousSampling>
*
* </StatusData>
* <ConfigurationData DeviceType='SBE37SMP-RS232' SerialNumber='03723829'>
*
*    <PressureInstalled>yes</PressureInstalled>
*
*    <SampleDataFormat>not set</SampleDataFormat>
*
*    <TemperatureUnits>Celsius</TemperatureUnits>
*
*    <ConductivityUnits>S/m</ConductivityUnits>
*
*    <PressureUnits>Decibar</PressureUnits>
*
*    <OutputTemperature>yes</OutputTemperature>
*
*    <OutputConductivity>yes</OutputConductivity>
*
*    <OutputPressure>yes</OutputPressure>
*
*    <OutputSalinity>yes</OutputSalinity>
*
*    <OutputSV>no</OutputSV>
*
*    <OutputSC>no</OutputSC>
*
*    <SCCoeff>0.0200</SCCoeff>
*
*    <TxSampleNumber>no</TxSampleNumber>
*
*    <SampleInterval>10</SampleInterval>
*
*    <TxRealTime>no</TxRealTime>
*
*    <SyncMode>no</SyncMode>
*
*    <MinCondFreq>3300.0</MinCondFreq>
*
*    <LegacyMode>no</LegacyMode>
*
*    <CompatibleMode>no</CompatibleMode>
*
* </ConfigurationData>
* <CalibrationCoefficients DeviceType='SBE37SMP-RS232' SerialNumber='03723829'>
*
*    <Calibration format='TEMP1' id='Temperature'>
*
*       <SerialNum>03723829</SerialNum>
*
*       <CalDate>26-Mar-24</CalDate>
*
*       <A0>-1.320107e-04</A0>
*
*       <A1>3.009820e-04</A1>
*
*       <A2>-3.567100e-06</A2>
*
*       <A3>1.789618e-07</A3>
*
*    </Calibration>
*
*    <Calibration format='WBCOND0' id='Conductivity'>
*
*       <SerialNum>03723829</SerialNum>
*
*       <CalDate>26-Mar-24</CalDate>
*
*       <G>-1.050094e+00</G>
*
*       <H>1.612135e-01</H>
*
*       <I>-5.090219e-04</I>
*
*       <J>6.448324e-05</J>
*
*       <PCOR>-9.570000e-08</PCOR>
*
*       <TCOR>3.250000e-06</TCOR>
*
*       <WBOTC>-6.512013e-08</WBOTC>
*
*    </Calibration>
*
*    <Calibration format='STRAIN0' id='Pressure'>
*
*       <SerialNum>5829995</SerialNum>
*
*       <CalDate>20-Mar-24</CalDate>
*
*       <PA0>-2.229331e+00</PA0>
*
*       <PA1>3.093096e-02</PA1>
*
*       <PA2>2.353794e-09</PA2>
*
*       <PTCA0>5.249061e+05</PTCA0>
*
*       <PTCA1>-7.719842e+00</PTCA1>
*
*       <PTCA2>1.967115e-01</PTCA2>
*
*       <PTCB0>9.984085e+01</PTCB0>
*
*       <PTCB1>-1.631755e-03</PTCB1>
*
*       <PTCB2>0.000000e+00</PTCB2>
*
*       <PTEMPA0>-9.535363e+01</PTEMPA0>
*
*       <PTEMPA1>3.818051e-02</PTEMPA1>
*
*       <PTEMPA2>1.345220e-06</PTEMPA2>
*
*       <POFFSET>0.000000e+00</POFFSET>
*
*       <PRANGE>1.015300e+04</PRANGE>
*
*    </Calibration>
*
* </CalibrationCoefficients>
* <EventCounters DeviceType='SBE37SMP-RS232' SerialNumber='03723829'>
*
*    <EventSummary numEvents='12'/>
*
*    <Event type='PON reset' count='10'/>
*
*    <Event type='LoggingRestartPON' count='2'/>
*
* </EventCounters></InstrumentState>
# nquan = 5
# nvalues = 1561                                  
# units = specified
# name 0 = tv290C: Temperature [ITS-90, deg C]
# name 1 = cond0S/m: Conductivity [S/m]
# name 2 = prdM: Pressure, Strain Gauge [db]
# name 3 = timeK: Time, Instrument [seconds]
# name 4 = flag:  0.000e+00
# span 0 =   -99.0000,   656.8541                 
# span 1 = -99.000000, 212.096382                 
# span 2 = -70064.104, 465929.789                 
# span 3 =          0, 4294967295                 
# span 4 = 0.0000e+00, 0.0000e+00                 
# interval = seconds: 10
# start_time = May 14 2025 04:15:01 [Instrument's time stamp, first data scan]
# bad_flag = -9.990e-29
# <Sensors count="3" >
#   <sensor Channel="1" >
#     <!-- Count, Temperature -->
#     <TemperatureSensor SensorID="58" >
#       <SerialNumber>23829</SerialNumber>
#       <CalibrationDate>26-Mar-24</CalibrationDate>
#       <A0>-1.32010700e-004</A0>
#       <A1>3.00982000e-004</A1>
#       <A2>-3.56710000e-006</A2>
#       <A3>1.78961800e-007</A3>
#       <Slope>1.00000000</Slope>
#       <Offset>0.0000</Offset>
#     </TemperatureSensor>
#   </sensor>
#   <sensor Channel="2" >
#     <!-- Frequency 0, Conductivity -->
#     <ConductivitySensor SensorID="3" >
#       <SerialNumber>23829</SerialNumber>
#       <CalibrationDate>26-Mar-24</CalibrationDate>
#       <UseG_J>1</UseG_J>
#       <!-- Cell const and series R are applicable only for wide range sensors. -->
#       <SeriesR>0.0000</SeriesR>
#       <CellConst>2000.0000</CellConst>
#       <ConductivityType>1</ConductivityType>
#       <Coefficients equation="0" >
#         <A>0.00000000e+000</A>
#         <B>0.00000000e+000</B>
#         <C>0.00000000e+000</C>
#         <D>0.00000000e+000</D>
#         <M>0.0</M>
#         <CPcor>-9.57000000e-008</CPcor>
#       </Coefficients>
#       <Coefficients equation="1" >
#         <G>-1.05009400e+000</G>
#         <H>1.61213500e-001</H>
#         <I>-5.09021900e-004</I>
#         <J>6.44832400e-005</J>
#         <CPcor>-9.57000000e-008</CPcor>
#         <CTcor>3.2500e-006</CTcor>
#         <!-- WBOTC not applicable unless ConductivityType = 1. -->
#         <WBOTC>-6.51201300e-008</WBOTC>
#       </Coefficients>
#       <Slope>1.00000000</Slope>
#       <Offset>0.00000</Offset>
#     </ConductivitySensor>
#   </sensor>
#   <sensor Channel="3" >
#     <!-- Count, Pressure, Strain Gauge -->
#     <PressureSensor SensorID="46" >
#       <SerialNumber>5829995</SerialNumber>
#       <CalibrationDate>20-Mar-24</CalibrationDate>
#       <PA0>-2.22933100e+000</PA0>
#       <PA1>3.09309600e-002</PA1>
#       <PA2>2.35379400e-009</PA2>
#       <PTEMPA0>-9.53536300e+001</PTEMPA0>
#       <PTEMPA1>3.81805100e-002</PTEMPA1>
#       <PTEMPA2>1.34522000e-006</PTEMPA2>
#       <PTCA0>5.24906100e+005</PTCA0>
#       <PTCA1>-7.71984200e+000</PTCA1>
#       <PTCA2>1.96711500e-001</PTCA2>
#       <PTCB0>9.98408500e+001</PTCB0>
#       <PTCB1>-1.63175500e-003</PTCB1>
#       <PTCB2>0.00000000e+000</PTCB2>
#       <Offset>0.000000</Offset>
#     </PressureSensor>
#   </sensor>
# </Sensors>
# datcnv_date = May 19 2025 07:53:42, 7.26.7.129 [datcnv_vars = 4]
# datcnv_in = C:\CE25007_recovery_data\23829_cal_dip_data.hex C:\CE25007_recovery_data\23829_cal_dip_data.xmlcon
# datcnv_skipover = 0
# file_type = ascii
*END*
    15.3734   0.000029      0.429  800511301  0.000e+00
    15.3759   0.000026      0.429  800511311  0.000e+00
    15.3621   0.000023      0.429  800511321  0.000e+00
    15.3660   0.000023      0.448  800511331  0.000e+00
    15.3722   0.000023      0.429  800511341  0.000e+00
    15.3714   0.000023      0.448  800511351  0.000e+00
    15.3706   0.000023      0.427  800511361  0.000e+00
    15.3644   0.000023      0.427  800511371  0.000e+00
    15.3560   0.000023      0.448  800511381  0.000e+00
    15.3514   0.000023      0.448  800511391  0.000e+00
    15.3510   0.000023      0.427  800511401  0.000e+00
    15.3562   0.000023      0.448  800511411  0.000e+00
    15.3592   0.000023      0.427  800511421  0.000e+00
    15.3618   0.000023      0.426  800511431  0.000e+00
    15.3656   0.000017      0.447  800511441  0.000e+00
    15.3622   0.000023      0.426  800511451  0.000e+00
    15.3645   0.000023      0.426  800511461  0.000e+00
    15.3614   0.000023      0.404  800511471  0.000e+00
    15.3704   0.000023      0.447  800511481  0.000e+00
    15.3716   0.000023      0.404  800511491  0.000e+00
    15.3665   0.000020      0.424  800511501  0.000e+00
    15.3711   0.000020      0.424  800511511  0.000e+00
    15.3718   0.000023      0.447  800511521  0.000e+00
    15.3796   0.000023      0.446  800511531  0.000e+00
    15.3799   0.000023      0.446  800511541  0.000e+00
    15.3784   0.000023      0.424  800511551  0.000e+00
    15.3791   0.000023      0.424  800511561  0.000e+00
    15.3838   0.000023      0.403  800511571  0.000e+00
    15.3876   0.000020      0.403  800511581  0.000e+00
    15.3887   0.000023      0.424  800511591  0.000e+00
    15.3895   0.000023      0.423  800511601  0.000e+00
    15.3841   0.000023      0.446  800511611  0.000e+00
    15.3850   0.000023      0.444  800511621  0.000e+00
    15.3882   0.000023      0.446  800511631  0.000e+00
    15.3900   0.000020      0.467  800511641  0.000e+00
    15.3943   0.000023      0.402  800511651  0.000e+00
    15.3981   0.000023      0.444  800511661  0.000e+00
    15.3951   0.000023      0.444  800511671  0.000e+00
    15.4051   0.000023      0.444  800511681  0.000e+00
    15.4048   0.000023      0.423  800511691  0.000e+00
    15.4060   0.000023      0.423  800511701  0.000e+00
    15.4033   0.000023      0.423  800511711  0.000e+00
    15.4005   0.000023      0.466  800511721  0.000e+00
    15.4014   0.000023      0.444  800511731  0.000e+00
    15.4043   0.000023      0.444  800511741  0.000e+00
    15.3994   0.000023      0.464  800511751  0.000e+00
    15.3899   0.000023      0.422  800511761  0.000e+00
    15.3916   0.000023      0.422  800511771  0.000e+00
    15.3994   0.000020      0.423  800511781  0.000e+00
    15.4025   0.000023      0.443  800511791  0.000e+00
    15.4058   0.000020      0.420  800511801  0.000e+00
    15.4040   0.000020      0.464  800511811  0.000e+00
    15.4076   0.000023      0.443  800511821  0.000e+00
    15.4049   0.000023      0.443  800511831  0.000e+00
    15.4051   0.000023      0.466  800511841  0.000e+00
    15.4052   0.000023      0.422  800511851  0.000e+00
    15.4056   0.000023      0.463  800511861  0.000e+00
    15.4013   0.000023      0.443  800511871  0.000e+00
    15.3963   0.000023      0.463  800511881  0.000e+00
    15.3992   0.000020      0.443  800511891  0.000e+00
    15.3972   0.000023      0.463  800511901  0.000e+00
    15.4078   0.000023      0.484  800511911  0.000e+00
    15.4096   0.000023      0.442  800511921  0.000e+00
    15.4160   0.000023      0.463  800511931  0.000e+00
    15.4228   0.000020      0.463  800511941  0.000e+00
    15.4241   0.000023      0.463  800511951  0.000e+00
    15.4254   0.000023      0.506  800511961  0.000e+00
    15.4298   0.000023      0.420  800511971  0.000e+00
    15.4243   0.000023      0.484  800511981  0.000e+00
    15.4290   0.000020      0.461  800511991  0.000e+00
    15.4306   0.000023      0.463  800512001  0.000e+00
    15.4290   0.000020      0.463  800512011  0.000e+00
    15.4309   0.000023      0.442  800512021  0.000e+00
    15.4333   0.000020      0.463  800512031  0.000e+00
    15.4353   0.000023      0.442  800512041  0.000e+00
    15.4368   0.000023      0.440  800512051  0.000e+00
    15.4306   0.000023      0.463  800512061  0.000e+00
    15.4288   0.000023      0.463  800512071  0.000e+00
    15.4228   0.000023      0.463  800512081  0.000e+00
    15.4300   0.000020      0.463  800512091  0.000e+00
    15.4409   0.000023      0.504  800512101  0.000e+00
    15.4420   0.000020      0.463  800512111  0.000e+00
    15.4453   0.000020      0.463  800512121  0.000e+00
    15.4437   0.000023      0.463  800512131  0.000e+00
    15.4482   0.000020      0.461  800512141  0.000e+00
    15.4514   0.000020      0.463  800512151  0.000e+00
    15.4445   0.000023      0.463  800512161  0.000e+00
    15.4435   0.000023      0.463  800512171  0.000e+00
    15.4506   0.000023      0.419  800512181  0.000e+00
    15.4483   0.000023      0.461  800512191  0.000e+00
    15.4488   0.000023      0.440  800512201  0.000e+00
    15.4530   0.000023      0.483  800512211  0.000e+00
    15.4484   0.000023      0.440  800512221  0.000e+00
    15.4482   0.000023      0.461  800512231  0.000e+00
    15.4470   0.000023      0.481  800512241  0.000e+00
    15.4497   0.000023      0.461  800512251  0.000e+00
    15.4442   0.000023      0.483  800512261  0.000e+00
    15.4420   0.000023      0.440  800512271  0.000e+00
    15.4444   0.000023      0.461  800512281  0.000e+00
    15.4453   0.000023      0.419  800512291  0.000e+00
    15.4463   0.000023      0.483  800512301  0.000e+00
    15.4471   0.000023      0.461  800512311  0.000e+00
    15.4384   0.000023      0.439  800512321  0.000e+00
    15.4366   0.000023      0.460  800512331  0.000e+00
    15.4315   0.000020      0.483  800512341  0.000e+00
    15.4270   0.000020      0.396  800512351  0.000e+00
    15.4261   0.000020      0.440  800512361  0.000e+00
    15.4304   0.000023      0.460  800512371  0.000e+00
    15.4310   0.000023      0.481  800512381  0.000e+00
    15.4292   0.000023      0.461  800512391  0.000e+00
    15.4330   0.000023      0.437  800512401  0.000e+00
    15.4369   0.000023      0.504  800512411  0.000e+00
    15.4380   0.000020      0.461  800512421  0.000e+00
    15.4322   0.000023      0.524  800512431  0.000e+00
    15.4353   0.000023      0.481  800512441  0.000e+00
    15.4359   0.000023      0.460  800512451  0.000e+00
    15.4330   0.000029      0.483  800512461  0.000e+00
    15.4274   0.000023      0.461  800512471  0.000e+00
    15.4208   0.000023      0.481  800512481  0.000e+00
    15.4257   0.000023      0.460  800512491  0.000e+00
    15.4294   0.000023      0.458  800512501  0.000e+00
    15.4199   0.000020      0.481  800512511  0.000e+00
    15.4243   0.000023      0.481  800512521  0.000e+00
    15.4205   0.000023      0.480  800512531  0.000e+00
    15.4123   0.000023      0.481  800512541  0.000e+00
    15.4154   0.000023      0.460  800512551  0.000e+00
    15.4134   0.000023      0.503  800512561  0.000e+00
    15.2934   0.000020      0.480  800512571  0.000e+00
    15.0728   0.000023      0.460  800512581  0.000e+00
    14.8816   0.000023      0.458  800512591  0.000e+00
    14.6694   0.000023      0.522  800512601  0.000e+00
    14.0384   0.000020      1.185  800512611  0.000e+00
    12.7288  -0.000031      1.205  800512621  0.000e+00
    12.4583   0.682165      3.915  800512631  0.000e+00
    12.3914   2.099459      7.051  800512641  0.000e+00
    12.3533   4.095431     10.441  800512651  0.000e+00
    12.3548   3.979629     10.760  800512661  0.000e+00
    12.3624   3.989487     10.927  800512671  0.000e+00
    12.3435   3.791477      8.131  800512681  0.000e+00
    12.3449   3.420093      4.181  800512691  0.000e+00
    12.3431   3.332173      1.554  800512701  0.000e+00
    12.3453   3.814393      1.339  800512711  0.000e+00
    12.3437   3.803999      1.526  800512721  0.000e+00
    12.3439   4.046250      4.148  800512731  0.000e+00
    12.3451   4.077576      8.689  800512741  0.000e+00
    12.3448   4.077621     13.677  800512751  0.000e+00
    12.2566   4.069896     18.602  800512761  0.000e+00
    12.1267   4.057782     23.250  800512771  0.000e+00
    12.0037   4.046434     28.004  800512781  0.000e+00
    11.7730   4.024399     34.830  800512791  0.000e+00
    11.3821   3.989822     41.567  800512801  0.000e+00
    11.3208   3.983525     48.586  800512811  0.000e+00
    11.3286   3.984225     55.304  800512821  0.000e+00
    11.3293   3.984439     62.132  800512831  0.000e+00
    11.3271   3.984773     69.041  800512841  0.000e+00
    11.3192   3.984099     76.253  800512851  0.000e+00
    11.3005   3.982750     84.037  800512861  0.000e+00
    11.3083   3.984120     92.466  800512871  0.000e+00
    11.2991   3.983587    100.958  800512881  0.000e+00
    11.2249   3.975879    106.696  800512891  0.000e+00
    11.1232   3.965476    114.252  800512901  0.000e+00
    11.1585   3.969623    124.939  800512911  0.000e+00
    11.1331   3.967524    135.722  800512921  0.000e+00
    11.1122   3.965847    146.586  800512931  0.000e+00
    11.0490   3.960191    156.106  800512941  0.000e+00
    11.0044   3.955846    165.543  800512951  0.000e+00
    10.9738   3.953061    174.957  800512961  0.000e+00
    10.9285   3.948585    184.970  800512971  0.000e+00
    10.8564   3.941971    195.071  800512981  0.000e+00
    10.8190   3.938721    205.512  800512991  0.000e+00
    10.7947   3.936789    215.444  800513001  0.000e+00
    10.7643   3.934122    225.844  800513011  0.000e+00
    10.7503   3.933383    235.862  800513021  0.000e+00
    10.6710   3.925547    246.138  800513031  0.000e+00
    10.6031   3.918928    256.454  800513041  0.000e+00
    10.4893   3.906993    266.710  800513051  0.000e+00
    10.2516   3.882464    276.921  800513061  0.000e+00
    10.1966   3.876000    286.515  800513071  0.000e+00
    10.2177   3.878603    296.773  800513081  0.000e+00
    10.0590   3.863369    306.962  800513091  0.000e+00
    10.0059   3.857877    317.221  800513101  0.000e+00
    10.2061   3.879897    327.267  800513111  0.000e+00
    10.1989   3.880682    337.332  800513121  0.000e+00
    10.2333   3.885518    347.529  800513131  0.000e+00
    10.1923   3.882349    358.091  800513141  0.000e+00
    10.0424   3.867040    368.115  800513151  0.000e+00
     9.9885   3.862053    378.125  800513161  0.000e+00
     9.9729   3.860554    388.343  800513171  0.000e+00
     9.9347   3.856941    398.415  800513181  0.000e+00
     9.8936   3.853803    408.528  800513191  0.000e+00
     9.8217   3.847371    418.259  800513201  0.000e+00
     9.7496   3.840937    428.226  800513211  0.000e+00
     9.7202   3.838247    438.341  800513221  0.000e+00
     9.6633   3.832797    448.352  800513231  0.000e+00
     9.6450   3.831241    458.514  800513241  0.000e+00
     9.6136   3.828353    468.484  800513251  0.000e+00
     9.5818   3.825563    478.537  800513261  0.000e+00
     9.5384   3.821679    488.555  800513271  0.000e+00
     9.4756   3.815913    498.994  800513281  0.000e+00
     9.4471   3.813216    508.796  800513291  0.000e+00
     9.3089   3.799904    518.983  800513301  0.000e+00
     9.1953   3.788549    529.300  800513311  0.000e+00
     9.1177   3.781175    539.189  800513321  0.000e+00
     9.0295   3.772862    549.271  800513331  0.000e+00
     8.9254   3.762848    559.633  800513341  0.000e+00
     8.8272   3.753148    569.581  800513351  0.000e+00
     8.7936   3.749795    579.798  800513361  0.000e+00
     8.6731   3.739415    589.904  800513371  0.000e+00
     8.5620   3.729484    599.648  800513381  0.000e+00
     8.5126   3.725262    609.345  800513391  0.000e+00
     8.4230   3.717560    619.411  800513401  0.000e+00
     8.3730   3.712720    629.820  800513411  0.000e+00
     8.3034   3.706678    639.973  800513421  0.000e+00
     8.2067   3.697753    649.569  800513431  0.000e+00
     8.1306   3.690292    659.484  800513441  0.000e+00
     8.0985   3.687679    669.763  800513451  0.000e+00
     7.9943   3.677940    679.872  800513461  0.000e+00
     7.7119   3.651696    689.968  800513471  0.000e+00
     7.6261   3.640641    699.671  800513481  0.000e+00
     7.4444   3.622388    709.700  800513491  0.000e+00
     7.4116   3.618675    719.901  800513501  0.000e+00
     7.2594   3.604024    729.949  800513511  0.000e+00
     7.1764   3.596402    739.997  800513521  0.000e+00
     7.0860   3.588002    749.943  800513531  0.000e+00
     6.9957   3.580238    760.486  800513541  0.000e+00
     6.9968   3.580370    770.862  800513551  0.000e+00
     6.8999   3.571270    780.934  800513561  0.000e+00
     6.8236   3.563857    791.114  800513571  0.000e+00
     6.7612   3.559157    801.359  800513581  0.000e+00
     6.7882   3.561977    811.953  800513591  0.000e+00
     6.7503   3.559421    822.028  800513601  0.000e+00
     6.6512   3.550651    832.215  800513611  0.000e+00
     6.5172   3.538287    842.609  800513621  0.000e+00
     6.4474   3.531357    852.368  800513631  0.000e+00
     6.4038   3.526997    862.810  800513641  0.000e+00
     6.3696   3.523967    872.631  800513651  0.000e+00
     6.2938   3.517122    882.371  800513661  0.000e+00
     6.2162   3.509706    892.428  800513671  0.000e+00
     6.1174   3.501246    902.127  800513681  0.000e+00
     6.0515   3.494324    912.014  800513691  0.000e+00
     5.9896   3.488718    921.859  800513701  0.000e+00
     5.9457   3.484405    931.946  800513711  0.000e+00
     5.8828   3.478672    941.744  800513721  0.000e+00
     5.8411   3.474804    951.450  800513731  0.000e+00
     5.7812   3.469377    961.384  800513741  0.000e+00
     5.7350   3.465073    971.194  800513751  0.000e+00
     5.6825   3.460205    981.257  800513761  0.000e+00
     5.6246   3.454893    990.961  800513771  0.000e+00
     5.5420   3.447223   1000.720  800513781  0.000e+00
     5.4737   3.440683   1010.919  800513791  0.000e+00
     5.4080   3.434692   1020.770  800513801  0.000e+00
     5.3507   3.429256   1030.842  800513811  0.000e+00
     5.2815   3.422915   1040.930  800513821  0.000e+00
     5.2429   3.419270   1050.294  800513831  0.000e+00
     5.2159   3.416827   1060.749  800513841  0.000e+00
     5.1371   3.409812   1071.082  800513851  0.000e+00
     5.0623   3.402982   1080.979  800513861  0.000e+00
     4.9889   3.396044   1090.862  800513871  0.000e+00
     4.9539   3.392979   1100.997  800513881  0.000e+00
     4.9366   3.391442   1111.252  800513891  0.000e+00
     4.8997   3.388108   1121.813  800513901  0.000e+00
     4.8074   3.379472   1132.042  800513911  0.000e+00
     4.7047   3.370008   1142.309  800513921  0.000e+00
     4.6713   3.366609   1152.432  800513931  0.000e+00
     4.6274   3.362546   1163.136  800513941  0.000e+00
     4.6252   3.362510   1173.362  800513951  0.000e+00
     4.6200   3.362375   1183.417  800513961  0.000e+00
     4.5706   3.358044   1193.822  800513971  0.000e+00
     4.5771   3.358864   1203.835  800513981  0.000e+00
     4.5867   3.360356   1213.682  800513991  0.000e+00
     4.5645   3.358785   1223.982  800514001  0.000e+00
     4.5044   3.353640   1234.255  800514011  0.000e+00
     4.4754   3.351182   1244.319  800514021  0.000e+00
     4.4533   3.349356   1254.363  800514031  0.000e+00
     4.4805   3.352162   1264.213  800514041  0.000e+00
     4.4218   3.347370   1274.833  800514051  0.000e+00
     4.4134   3.346702   1284.578  800514061  0.000e+00
     4.4175   3.347547   1294.774  800514071  0.000e+00
     4.4034   3.346702   1304.908  800514081  0.000e+00
     4.3869   3.345594   1314.998  800514091  0.000e+00
     4.3348   3.341160   1324.782  800514101  0.000e+00
     4.2654   3.334902   1334.874  800514111  0.000e+00
     4.1559   3.324987   1345.197  800514121  0.000e+00
     4.1374   3.323075   1355.189  800514131  0.000e+00
     4.1206   3.321629   1365.047  800514141  0.000e+00
     4.1893   3.328454   1375.077  800514151  0.000e+00
     4.1734   3.327696   1385.129  800514161  0.000e+00
     4.1507   3.326086   1395.318  800514171  0.000e+00
     4.1312   3.324639   1405.150  800514181  0.000e+00
     4.1040   3.322333   1414.767  800514191  0.000e+00
     4.0563   3.318324   1425.345  800514201  0.000e+00
     4.0473   3.317665   1435.343  800514211  0.000e+00
     4.0388   3.317164   1445.140  800514221  0.000e+00
     4.0225   3.316007   1455.348  800514231  0.000e+00
     4.0180   3.315918   1465.104  800514241  0.000e+00
     4.0274   3.317285   1475.135  800514251  0.000e+00
     3.9958   3.314902   1484.791  800514261  0.000e+00
     3.9770   3.313399   1495.016  800514271  0.000e+00
     3.9510   3.311293   1504.680  800514281  0.000e+00
     3.9452   3.311021   1514.756  800514291  0.000e+00
     3.9341   3.310369   1524.739  800514301  0.000e+00
     3.9247   3.309868   1534.478  800514311  0.000e+00
     3.9166   3.309524   1544.433  800514321  0.000e+00
     3.9090   3.309174   1554.654  800514331  0.000e+00
     3.8919   3.307979   1564.712  800514341  0.000e+00
     3.8848   3.307798   1574.460  800514351  0.000e+00
     3.8698   3.306944   1584.677  800514361  0.000e+00
     3.8470   3.305174   1595.031  800514371  0.000e+00
     3.8358   3.304437   1605.687  800514381  0.000e+00
     3.8307   3.304343   1616.051  800514391  0.000e+00
     3.8134   3.303194   1626.148  800514401  0.000e+00
     3.8042   3.302726   1636.454  800514411  0.000e+00
     3.7849   3.301349   1646.956  800514421  0.000e+00
     3.7850   3.301784   1657.746  800514431  0.000e+00
     3.7822   3.301899   1667.990  800514441  0.000e+00
     3.7624   3.300672   1678.004  800514451  0.000e+00
     3.7566   3.300532   1688.617  800514461  0.000e+00
     3.7566   3.300967   1698.762  800514471  0.000e+00
     3.7475   3.300656   1709.441  800514481  0.000e+00
     3.7196   3.298534   1719.760  800514491  0.000e+00
     3.7113   3.298164   1730.160  800514501  0.000e+00
     3.7098   3.298422   1740.236  800514511  0.000e+00
     3.7080   3.298700   1750.579  800514521  0.000e+00
     3.7050   3.299031   1760.945  800514531  0.000e+00
     3.7100   3.300002   1770.714  800514541  0.000e+00
     3.6979   3.299443   1781.146  800514551  0.000e+00
     3.6872   3.298962   1791.147  800514561  0.000e+00
     3.6832   3.299063   1800.889  800514571  0.000e+00
     3.6793   3.299138   1810.624  800514581  0.000e+00
     3.6760   3.299227   1820.778  800514591  0.000e+00
     3.6685   3.299021   1831.034  800514601  0.000e+00
     3.6657   3.299148   1840.930  800514611  0.000e+00
     3.6636   3.299354   1850.718  800514621  0.000e+00
     3.6459   3.298396   1860.803  800514631  0.000e+00
     3.6383   3.298000   1870.888  800514641  0.000e+00
     3.6320   3.297912   1880.837  800514651  0.000e+00
     3.6229   3.297791   1890.780  800514661  0.000e+00
     3.6021   3.296493   1900.911  800514671  0.000e+00
     3.5757   3.294580   1910.956  800514681  0.000e+00
     3.5621   3.293734   1921.073  800514691  0.000e+00
     3.5549   3.293397   1930.946  800514701  0.000e+00
     3.5366   3.292178   1941.109  800514711  0.000e+00
     3.5264   3.291626   1951.272  800514721  0.000e+00
     3.5101   3.290642   1961.320  800514731  0.000e+00
     3.5102   3.290972   1971.744  800514741  0.000e+00
     3.4961   3.290211   1981.866  800514751  0.000e+00
     3.4693   3.288379   1991.946  800514761  0.000e+00
     3.4610   3.287938   2002.213  800514771  0.000e+00
     3.4424   3.286772   2012.805  800514781  0.000e+00
     3.4319   3.286220   2022.873  800514791  0.000e+00
     3.4206   3.285622   2032.717  800514801  0.000e+00
     3.4075   3.284881   2043.031  800514811  0.000e+00
     3.3950   3.284225   2053.136  800514821  0.000e+00
     3.3908   3.284176   2062.823  800514831  0.000e+00
     3.3839   3.283990   2073.255  800514841  0.000e+00
     3.3662   3.282877   2083.059  800514851  0.000e+00
     3.3469   3.281672   2093.319  800514861  0.000e+00
     3.3184   3.279685   2103.290  800514871  0.000e+00
     3.3004   3.278533   2113.616  800514881  0.000e+00
     3.2792   3.277042   2123.531  800514891  0.000e+00
     3.2527   3.275186   2133.375  800514901  0.000e+00
     3.2321   3.273781   2143.306  800514911  0.000e+00
     3.2007   3.271528   2153.469  800514921  0.000e+00
     3.1788   3.269940   2163.769  800514931  0.000e+00
     3.1649   3.268992   2174.042  800514941  0.000e+00
     3.1433   3.267529   2183.932  800514951  0.000e+00
     3.1162   3.265642   2193.853  800514961  0.000e+00
     3.0867   3.263463   2203.896  800514971  0.000e+00
     3.0673   3.262073   2214.026  800514981  0.000e+00
     3.0389   3.259992   2224.252  800514991  0.000e+00
     3.0205   3.258720   2234.240  800515001  0.000e+00
     2.9923   3.256672   2244.250  800515011  0.000e+00
     2.9759   3.255524   2254.535  800515021  0.000e+00
     2.9509   3.253738   2264.547  800515031  0.000e+00
     2.9264   3.252036   2274.342  800515041  0.000e+00
     2.9128   3.251103   2284.564  800515051  0.000e+00
     2.9043   3.250644   2294.939  800515061  0.000e+00
     2.8881   3.249594   2304.888  800515071  0.000e+00
     2.8792   3.249077   2314.600  800515081  0.000e+00
     2.8799   3.249431   2324.673  800515091  0.000e+00
     2.8729   3.249187   2334.733  800515101  0.000e+00
     2.8720   3.249202   2338.714  800515111  0.000e+00
     2.8660   3.248917   2344.807  800515121  0.000e+00
     2.8572   3.248452   2352.960  800515131  0.000e+00
     2.8495   3.248084   2361.114  800515141  0.000e+00
     2.8456   3.248028   2369.086  800515151  0.000e+00
     2.8441   3.248141   2377.067  800515161  0.000e+00
     2.8409   3.248182   2385.605  800515171  0.000e+00
     2.8392   3.248354   2393.673  800515181  0.000e+00
     2.8346   3.248043   2397.027  800515191  0.000e+00
     2.8236   3.247303   2401.930  800515201  0.000e+00
     2.8118   3.246447   2407.071  800515211  0.000e+00
     2.8102   3.246422   2411.843  800515221  0.000e+00
     2.8082   3.246306   2414.533  800515231  0.000e+00
     2.8062   3.246105   2414.633  800515241  0.000e+00
     2.8050   3.245936   2414.959  800515251  0.000e+00
     2.8050   3.245903   2414.785  800515261  0.000e+00
     2.8079   3.246124   2414.604  800515271  0.000e+00
     2.8079   3.246118   2414.604  800515281  0.000e+00
     2.8081   3.246144   2415.029  800515291  0.000e+00
     2.8078   3.246131   2415.029  800515301  0.000e+00
     2.8084   3.246144   2414.639  800515311  0.000e+00
     2.8079   3.246118   2414.769  800515321  0.000e+00
     2.8089   3.246189   2414.769  800515331  0.000e+00
     2.8094   3.246209   2414.718  800515341  0.000e+00
     2.8092   3.246222   2415.217  800515351  0.000e+00
     2.8093   3.246209   2414.775  800515361  0.000e+00
     2.8089   3.246202   2414.948  800515371  0.000e+00
     2.8092   3.246228   2414.775  800515381  0.000e+00
     2.8094   3.246248   2415.013  800515391  0.000e+00
     2.8096   3.246274   2415.100  800515401  0.000e+00
     2.8096   3.246261   2414.862  800515411  0.000e+00
     2.8097   3.246248   2414.905  800515421  0.000e+00
     2.8102   3.246300   2415.266  800515431  0.000e+00
     2.8098   3.246293   2415.135  800515441  0.000e+00
     2.8095   3.246248   2414.940  800515451  0.000e+00
     2.8096   3.246267   2415.135  800515461  0.000e+00
     2.8098   3.246261   2414.780  800515471  0.000e+00
     2.8098   3.246254   2414.550  800515481  0.000e+00
     2.8097   3.246274   2414.759  800515491  0.000e+00
     2.8101   3.246293   2415.214  800515501  0.000e+00
     2.8099   3.246287   2415.358  800515511  0.000e+00
     2.8097   3.246261   2415.119  800515521  0.000e+00
     2.8100   3.246261   2414.759  800515531  0.000e+00
     2.8097   3.246254   2414.715  800515541  0.000e+00
     2.8097   3.246248   2414.816  800515551  0.000e+00
     2.8095   3.246241   2414.889  800515561  0.000e+00
     2.8092   3.246248   2415.236  800515571  0.000e+00
     2.8092   3.246222   2414.620  800515581  0.000e+00
     2.8084   3.246137   2414.577  800515591  0.000e+00
     2.8078   3.246092   2415.141  800515601  0.000e+00
     2.8084   3.246137   2414.859  800515611  0.000e+00
     2.8083   3.246131   2414.599  800515621  0.000e+00
     2.8090   3.246163   2415.098  800515631  0.000e+00
     2.8084   3.246177   2415.480  800515641  0.000e+00
     2.8091   3.246209   2415.263  800515651  0.000e+00
     2.8093   3.246209   2414.829  800515661  0.000e+00
     2.8097   3.246241   2415.306  800515671  0.000e+00
     2.8081   3.246144   2415.119  800515681  0.000e+00
     2.8081   3.246150   2415.350  800515691  0.000e+00
     2.8084   3.246131   2414.677  800515701  0.000e+00
     2.8093   3.246202   2414.981  800515711  0.000e+00
     2.8092   3.246235   2415.502  800515721  0.000e+00
     2.8096   3.246235   2414.894  800515731  0.000e+00
     2.8097   3.246248   2415.263  800515741  0.000e+00
     2.8091   3.246209   2415.436  800515751  0.000e+00
     2.8096   3.246228   2414.989  800515761  0.000e+00
     2.8091   3.246189   2414.504  800515771  0.000e+00
     2.8088   3.246163   2415.016  800515781  0.000e+00
     2.8086   3.246170   2415.428  800515791  0.000e+00
     2.8083   3.246157   2415.393  800515801  0.000e+00
     2.8087   3.246163   2415.198  800515811  0.000e+00
     2.8073   3.246046   2414.756  800515821  0.000e+00
     2.8069   3.246001   2415.103  800515831  0.000e+00
     2.8066   3.245994   2415.168  800515841  0.000e+00
     2.8067   3.245981   2414.908  800515851  0.000e+00
     2.8071   3.246014   2415.016  800515861  0.000e+00
     2.8077   3.246066   2415.580  800515871  0.000e+00
     2.8081   3.246092   2414.981  800515881  0.000e+00
     2.8083   3.246118   2415.024  800515891  0.000e+00
     2.8081   3.246111   2415.190  800515901  0.000e+00
     2.8080   3.246131   2415.407  800515911  0.000e+00
     2.8086   3.246131   2415.125  800515921  0.000e+00
     2.8084   3.246124   2414.943  800515931  0.000e+00
     2.8084   3.246144   2415.537  800515941  0.000e+00
     2.8086   3.246163   2415.342  800515951  0.000e+00
     2.8081   3.246125   2415.624  800515961  0.000e+00
     2.8080   3.246092   2415.190  800515971  0.000e+00
     2.8089   3.246157   2414.677  800515981  0.000e+00
     2.8084   3.246124   2415.363  800515991  0.000e+00
     2.8089   3.246196   2415.247  800516001  0.000e+00
     2.8097   3.246241   2415.255  800516011  0.000e+00
     2.8094   3.246235   2415.333  800516021  0.000e+00
     2.8095   3.246228   2414.864  800516031  0.000e+00
     2.8093   3.246241   2415.320  800516041  0.000e+00
     2.8093   3.246202   2414.929  800516051  0.000e+00
     2.8087   3.246176   2415.060  800516061  0.000e+00
     2.8090   3.246229   2415.832  800516071  0.000e+00
     2.8094   3.246222   2414.908  800516081  0.000e+00
     2.8094   3.246209   2414.769  800516091  0.000e+00
     2.8094   3.246228   2414.929  800516101  0.000e+00
     2.8094   3.246235   2415.255  800516111  0.000e+00
     2.8096   3.246261   2415.615  800516121  0.000e+00
     2.8098   3.246248   2414.639  800516131  0.000e+00
     2.8098   3.246248   2415.038  800516141  0.000e+00
     2.8101   3.246280   2415.255  800516151  0.000e+00
     2.8099   3.246254   2415.146  800516161  0.000e+00
     2.8098   3.246267   2415.051  800516171  0.000e+00
     2.8102   3.246267   2414.900  800516181  0.000e+00
     2.8102   3.246188   2412.123  800516191  0.000e+00
     2.8155   3.246297   2405.008  800516201  0.000e+00
     2.8347   3.247627   2397.958  800516211  0.000e+00
     2.8419   3.248008   2389.984  800516221  0.000e+00
     2.8425   3.247817   2381.908  800516231  0.000e+00
     2.8449   3.247730   2374.108  800516241  0.000e+00
     2.8453   3.247533   2366.670  800516251  0.000e+00
     2.8460   3.247297   2359.570  800516261  0.000e+00
     2.8449   3.247205   2359.210  800516271  0.000e+00
     2.8453   3.247277   2359.462  800516281  0.000e+00
     2.8455   3.247322   2359.375  800516291  0.000e+00
     2.8459   3.247342   2358.950  800516301  0.000e+00
     2.8461   3.247388   2359.787  800516311  0.000e+00
     2.8458   3.247375   2359.514  800516321  0.000e+00
     2.8459   3.247400   2359.362  800516331  0.000e+00
     2.8458   3.247394   2359.297  800516341  0.000e+00
     2.8463   3.247426   2359.232  800516351  0.000e+00
     2.8459   3.247440   2360.012  800516361  0.000e+00
     2.8465   3.247446   2359.145  800516371  0.000e+00
     2.8465   3.247341   2356.348  800516381  0.000e+00
     2.8505   3.247339   2348.490  800516391  0.000e+00
     2.8576   3.247616   2341.017  800516401  0.000e+00
     2.8610   3.247692   2335.329  800516411  0.000e+00
     2.8586   3.247523   2335.510  800516421  0.000e+00
     2.8648   3.247846   2330.003  800516431  0.000e+00
     2.8674   3.247799   2322.884  800516441  0.000e+00
     2.8746   3.248128   2315.153  800516451  0.000e+00
     2.8749   3.247885   2307.435  800516461  0.000e+00
     2.8778   3.247791   2298.973  800516471  0.000e+00
     2.8987   3.249180   2291.387  800516481  0.000e+00
     2.9027   3.249308   2283.744  800516491  0.000e+00
     2.9089   3.249552   2275.890  800516501  0.000e+00
     2.9331   3.251234   2268.002  800516511  0.000e+00
     2.9615   3.253248   2260.005  800516521  0.000e+00
     2.9940   3.255790   2251.887  800516531  0.000e+00
     2.9966   3.255872   2244.238  800516541  0.000e+00
     3.0070   3.256533   2236.265  800516551  0.000e+00
     3.0262   3.257839   2228.392  800516561  0.000e+00
     3.0315   3.258116   2220.614  800516571  0.000e+00
     3.0418   3.258778   2212.888  800516581  0.000e+00
     3.0845   3.261848   2204.968  800516591  0.000e+00
     3.0947   3.262614   2197.378  800516601  0.000e+00
     3.1145   3.263947   2189.646  800516611  0.000e+00
     3.1246   3.264694   2182.347  800516621  0.000e+00
     3.1437   3.266034   2175.337  800516631  0.000e+00
     3.1448   3.266058   2168.537  800516641  0.000e+00
     3.1517   3.266407   2161.469  800516651  0.000e+00
     3.1663   3.267337   2153.798  800516661  0.000e+00
     3.1866   3.268703   2146.471  800516671  0.000e+00
     3.1979   3.269463   2139.333  800516681  0.000e+00
     3.2279   3.271592   2131.379  800516691  0.000e+00
     3.2227   3.271305   2129.929  800516701  0.000e+00
     3.2303   3.272022   2129.655  800516711  0.000e+00
     3.2308   3.272185   2129.850  800516721  0.000e+00
     3.2308   3.272329   2130.197  800516731  0.000e+00
     3.2317   3.272394   2129.590  800516741  0.000e+00
     3.2312   3.272414   2130.067  800516751  0.000e+00
     3.2300   3.272342   2130.421  800516761  0.000e+00
     3.2311   3.272413   2129.937  800516771  0.000e+00
     3.2319   3.272511   2130.218  800516781  0.000e+00
     3.2313   3.272472   2130.183  800516791  0.000e+00
     3.2312   3.272485   2129.923  800516801  0.000e+00
     3.2310   3.272472   2130.161  800516811  0.000e+00
     3.2309   3.272485   2130.039  800516821  0.000e+00
     3.2365   3.272752   2126.697  800516831  0.000e+00
     3.2584   3.274138   2118.925  800516841  0.000e+00
     3.2720   3.275049   2111.161  800516851  0.000e+00
     3.2773   3.275222   2103.649  800516861  0.000e+00
     3.2849   3.275592   2095.670  800516871  0.000e+00
     3.3007   3.276567   2087.856  800516881  0.000e+00
     3.3266   3.278326   2079.970  800516891  0.000e+00
     3.3473   3.279857   2072.048  800516901  0.000e+00
     3.3586   3.280592   2064.503  800516911  0.000e+00
     3.3688   3.281184   2057.059  800516921  0.000e+00
     3.3868   3.282448   2048.923  800516931  0.000e+00
     3.3942   3.282811   2041.263  800516941  0.000e+00
     3.4035   3.283311   2033.539  800516951  0.000e+00
     3.4104   3.283753   2028.692  800516961  0.000e+00
     3.4122   3.284034   2029.068  800516971  0.000e+00
     3.4137   3.284198   2028.916  800516981  0.000e+00
     3.4146   3.284354   2029.068  800516991  0.000e+00
     3.4144   3.284380   2029.125  800517001  0.000e+00
     3.4144   3.284387   2028.643  800517011  0.000e+00
     3.4148   3.284433   2028.981  800517021  0.000e+00
     3.4142   3.284420   2029.075  800517031  0.000e+00
     3.4143   3.284452   2029.170  800517041  0.000e+00
     3.4142   3.284439   2029.032  800517051  0.000e+00
     3.4144   3.284446   2028.621  800517061  0.000e+00
     3.4144   3.284426   2028.650  800517071  0.000e+00
     3.4134   3.284387   2029.270  800517081  0.000e+00
     3.4134   3.284374   2029.126  800517091  0.000e+00
     3.4139   3.284393   2028.174  800517101  0.000e+00
     3.4139   3.284426   2029.177  800517111  0.000e+00
     3.4140   3.284413   2028.910  800517121  0.000e+00
     3.4135   3.284400   2029.040  800517131  0.000e+00
     3.4135   3.284387   2028.939  800517141  0.000e+00
     3.4136   3.284406   2028.831  800517151  0.000e+00
     3.4122   3.284322   2029.459  800517161  0.000e+00
     3.4116   3.284204   2028.485  800517171  0.000e+00
     3.4114   3.284204   2029.272  800517181  0.000e+00
     3.4114   3.284211   2029.221  800517191  0.000e+00
     3.4108   3.284165   2029.026  800517201  0.000e+00
     3.4111   3.284158   2028.550  800517211  0.000e+00
     3.4111   3.284178   2028.709  800517221  0.000e+00
     3.4117   3.284224   2029.163  800517231  0.000e+00
     3.4117   3.284230   2029.264  800517241  0.000e+00
     3.4118   3.284224   2028.831  800517251  0.000e+00
     3.4120   3.284230   2028.644  800517261  0.000e+00
     3.4118   3.284250   2029.077  800517271  0.000e+00
     3.4105   3.284165   2029.380  800517281  0.000e+00
     3.4090   3.284015   2029.055  800517291  0.000e+00
     3.4064   3.283806   2029.077  800517301  0.000e+00
     3.4048   3.283662   2028.990  800517311  0.000e+00
     3.4060   3.283754   2029.128  800517321  0.000e+00
     3.4078   3.283884   2029.380  800517331  0.000e+00
     3.4104   3.284054   2028.976  800517341  0.000e+00
     3.4115   3.284139   2028.493  800517351  0.000e+00
     3.4116   3.284165   2028.760  800517361  0.000e+00
     3.4106   3.284113   2029.128  800517371  0.000e+00
     3.4093   3.284008   2029.120  800517381  0.000e+00
     3.4113   3.284139   2028.803  800517391  0.000e+00
     3.4103   3.284106   2029.214  800517401  0.000e+00
     3.4115   3.284145   2028.414  800517411  0.000e+00
     3.4159   3.284201   2020.733  800517421  0.000e+00
     3.4283   3.284858   2012.880  800517431  0.000e+00
     3.4444   3.285894   2005.028  800517441  0.000e+00
     3.4510   3.286186   1997.024  800517451  0.000e+00
     3.4545   3.286177   1989.467  800517461  0.000e+00
     3.4625   3.286494   1981.494  800517471  0.000e+00
     3.4754   3.287269   1973.340  800517481  0.000e+00
     3.4801   3.287410   1965.511  800517491  0.000e+00
     3.4889   3.287891   1957.726  800517501  0.000e+00
     3.5034   3.288783   1949.509  800517511  0.000e+00
     3.5201   3.289937   1941.789  800517521  0.000e+00
     3.5438   3.291673   1934.143  800517531  0.000e+00
     3.5729   3.293938   1926.071  800517541  0.000e+00
     3.5561   3.292624   1925.681  800517551  0.000e+00
     3.5697   3.293833   1924.990  800517561  0.000e+00
     3.5750   3.294337   1925.775  800517571  0.000e+00
     3.5755   3.294467   1925.257  800517581  0.000e+00
     3.5765   3.294644   1925.840  800517591  0.000e+00
     3.5765   3.294696   1926.057  800517601  0.000e+00
     3.5769   3.294742   1925.711  800517611  0.000e+00
     3.5774   3.294768   1925.062  800517621  0.000e+00
     3.5774   3.294833   1926.078  800517631  0.000e+00
     3.5779   3.294833   1925.365  800517641  0.000e+00
     3.5779   3.294853   1925.386  800517651  0.000e+00
     3.5786   3.294918   1925.783  800517661  0.000e+00
     3.5786   3.294892   1925.156  800517671  0.000e+00
     3.5788   3.294846   1923.837  800517681  0.000e+00
     3.5794   3.294484   1916.033  800517691  0.000e+00
     3.5840   3.294455   1908.034  800517701  0.000e+00
     3.5957   3.295132   1899.863  800517711  0.000e+00
     3.6305   3.297745   1891.757  800517721  0.000e+00
     3.6350   3.297867   1883.594  800517731  0.000e+00
     3.6382   3.297832   1875.727  800517741  0.000e+00
     3.6421   3.297633   1867.355  800517751  0.000e+00
     3.6490   3.297879   1859.295  800517761  0.000e+00
     3.6650   3.298890   1851.623  800517771  0.000e+00
     3.6725   3.299286   1844.565  800517781  0.000e+00
     3.6785   3.299533   1837.715  800517791  0.000e+00
     3.6820   3.299602   1830.448  800517801  0.000e+00
     3.6818   3.299417   1824.722  800517811  0.000e+00
     3.6816   3.299424   1824.759  800517821  0.000e+00
     3.6814   3.299450   1824.622  800517831  0.000e+00
     3.6820   3.299516   1824.730  800517841  0.000e+00
     3.6824   3.299555   1824.716  800517851  0.000e+00
     3.6833   3.299653   1824.629  800517861  0.000e+00
     3.6835   3.299692   1824.867  800517871  0.000e+00
     3.6840   3.299699   1824.608  800517881  0.000e+00
     3.6835   3.299692   1824.651  800517891  0.000e+00
     3.6832   3.299705   1825.198  800517901  0.000e+00
     3.6828   3.299633   1824.507  800517911  0.000e+00
     3.6825   3.299627   1824.932  800517921  0.000e+00
     3.6825   3.299653   1825.069  800517931  0.000e+00
     3.6826   3.299640   1825.148  800517941  0.000e+00
     3.6825   3.299627   1824.694  800517951  0.000e+00
     3.6826   3.299640   1824.572  800517961  0.000e+00
     3.6831   3.299646   1824.737  800517971  0.000e+00
     3.6827   3.299673   1825.198  800517981  0.000e+00
     3.6827   3.299646   1824.745  800517991  0.000e+00
     3.6826   3.299627   1824.637  800518001  0.000e+00
     3.6823   3.299620   1825.033  800518011  0.000e+00
     3.6825   3.299640   1824.896  800518021  0.000e+00
     3.6823   3.299633   1824.860  800518031  0.000e+00
     3.6826   3.299640   1825.242  800518041  0.000e+00
     3.6823   3.299640   1825.076  800518051  0.000e+00
     3.6823   3.299594   1824.882  800518061  0.000e+00
     3.6821   3.299581   1824.903  800518071  0.000e+00
     3.6818   3.299607   1825.422  800518081  0.000e+00
     3.6818   3.299575   1824.860  800518091  0.000e+00
     3.6816   3.299575   1824.990  800518101  0.000e+00
     3.6816   3.299555   1824.644  800518111  0.000e+00
     3.6817   3.299555   1825.004  800518121  0.000e+00
     3.6813   3.299542   1824.752  800518131  0.000e+00
     3.6814   3.299522   1824.903  800518141  0.000e+00
     3.6814   3.299529   1825.206  800518151  0.000e+00
     3.6813   3.299542   1825.119  800518161  0.000e+00
     3.6815   3.299516   1824.529  800518171  0.000e+00
     3.6815   3.299529   1825.055  800518181  0.000e+00
     3.6813   3.299535   1824.947  800518191  0.000e+00
     3.6813   3.299535   1825.033  800518201  0.000e+00
     3.6815   3.299522   1824.990  800518211  0.000e+00
     3.6813   3.299529   1824.932  800518221  0.000e+00
     3.6815   3.299529   1825.076  800518231  0.000e+00
     3.6808   3.299516   1825.141  800518241  0.000e+00
     3.6810   3.299522   1825.148  800518251  0.000e+00
     3.6809   3.299476   1824.803  800518261  0.000e+00
     3.6807   3.299470   1825.141  800518271  0.000e+00
     3.6810   3.299233   1819.048  800518281  0.000e+00
     3.6800   3.298825   1811.574  800518291  0.000e+00
     3.6824   3.298678   1803.775  800518301  0.000e+00
     3.6857   3.298604   1795.847  800518311  0.000e+00
     3.6844   3.298209   1788.071  800518321  0.000e+00
     3.6905   3.298318   1780.296  800518331  0.000e+00
     3.6907   3.298067   1772.722  800518341  0.000e+00
     3.7120   3.299437   1764.530  800518351  0.000e+00
     3.7181   3.299697   1757.101  800518361  0.000e+00
     3.7208   3.299642   1749.507  800518371  0.000e+00
     3.7239   3.299548   1741.957  800518381  0.000e+00
     3.7264   3.299473   1734.169  800518391  0.000e+00
     3.7320   3.299635   1726.749  800518401  0.000e+00
     3.7318   3.299496   1722.841  800518411  0.000e+00
     3.7304   3.299463   1723.294  800518421  0.000e+00
     3.7323   3.299640   1723.165  800518431  0.000e+00
     3.7326   3.299646   1723.064  800518441  0.000e+00
     3.7329   3.299705   1723.078  800518451  0.000e+00
     3.7331   3.299725   1723.078  800518461  0.000e+00
     3.7331   3.299758   1723.640  800518471  0.000e+00
     3.7333   3.299771   1723.273  800518481  0.000e+00
     3.7332   3.299764   1722.971  800518491  0.000e+00
     3.7332   3.299810   1723.661  800518501  0.000e+00
     3.7333   3.299790   1723.338  800518511  0.000e+00
     3.7333   3.299797   1722.877  800518521  0.000e+00
     3.7360   3.299736   1717.005  800518531  0.000e+00
     3.7079   3.296536   1708.880  800518541  0.000e+00
     3.7245   3.297553   1700.979  800518551  0.000e+00
     3.7367   3.298283   1692.640  800518561  0.000e+00
     3.7553   3.299660   1684.718  800518571  0.000e+00
     3.7592   3.299769   1676.711  800518581  0.000e+00
     3.7720   3.300545   1668.618  800518591  0.000e+00
     3.7773   3.300797   1660.654  800518601  0.000e+00
     3.7854   3.301128   1652.713  800518611  0.000e+00
     3.7932   3.301466   1644.729  800518621  0.000e+00
     3.8079   3.302432   1637.349  800518631  0.000e+00
     3.8102   3.302423   1630.121  800518641  0.000e+00
     3.8185   3.302768   1622.922  800518651  0.000e+00
     3.8173   3.302747   1620.959  800518661  0.000e+00
     3.8187   3.302826   1620.477  800518671  0.000e+00
     3.8228   3.303218   1620.606  800518681  0.000e+00
     3.8267   3.303637   1621.196  800518691  0.000e+00
     3.8301   3.303925   1621.024  800518701  0.000e+00
     3.8322   3.304187   1620.980  800518711  0.000e+00
     3.8336   3.304305   1620.700  800518721  0.000e+00
     3.8333   3.304338   1621.024  800518731  0.000e+00
     3.8332   3.304324   1620.786  800518741  0.000e+00
     3.8334   3.304357   1621.139  800518751  0.000e+00
     3.8335   3.304350   1620.527  800518761  0.000e+00
     3.8334   3.304357   1620.916  800518771  0.000e+00
     3.8327   3.304325   1621.268  800518781  0.000e+00
     3.8337   3.304357   1620.535  800518791  0.000e+00
     3.8329   3.304305   1621.009  800518801  0.000e+00
     3.8325   3.304305   1620.923  800518811  0.000e+00
     3.8325   3.304318   1621.268  800518821  0.000e+00
     3.8332   3.304337   1620.664  800518831  0.000e+00
     3.8330   3.304351   1620.966  800518841  0.000e+00
     3.8327   3.304338   1621.247  800518851  0.000e+00
     3.8329   3.304337   1620.578  800518861  0.000e+00
     3.8330   3.304337   1620.642  800518871  0.000e+00
     3.8331   3.304344   1621.254  800518881  0.000e+00
     3.8330   3.304344   1620.858  800518891  0.000e+00
     3.8327   3.304344   1621.009  800518901  0.000e+00
     3.8340   3.304403   1620.707  800518911  0.000e+00
     3.8334   3.304390   1621.333  800518921  0.000e+00
     3.8337   3.304410   1621.009  800518931  0.000e+00
     3.8348   3.304488   1620.412  800518941  0.000e+00
     3.8347   3.304495   1620.988  800518951  0.000e+00
     3.8340   3.304449   1621.182  800518961  0.000e+00
     3.8349   3.304501   1620.865  800518971  0.000e+00
     3.8344   3.304475   1620.909  800518981  0.000e+00
     3.8353   3.304521   1620.714  800518991  0.000e+00
     3.8350   3.304540   1621.182  800519001  0.000e+00
     3.8365   3.304619   1620.664  800519011  0.000e+00
     3.8359   3.304586   1621.189  800519021  0.000e+00
     3.8360   3.304612   1620.995  800519031  0.000e+00
     3.8364   3.304625   1620.671  800519041  0.000e+00
     3.8361   3.304619   1620.628  800519051  0.000e+00
     3.8365   3.304684   1621.211  800519061  0.000e+00
     3.8367   3.304671   1620.628  800519071  0.000e+00
     3.8482   3.305291   1613.811  800519081  0.000e+00
     3.8548   3.305609   1605.613  800519091  0.000e+00
     3.8636   3.306136   1597.696  800519101  0.000e+00
     3.8761   3.306933   1589.564  800519111  0.000e+00
     3.8968   3.308455   1581.238  800519121  0.000e+00
     3.9067   3.308976   1572.827  800519131  0.000e+00
     3.9207   3.309923   1564.898  800519141  0.000e+00
     3.9319   3.310713   1557.558  800519151  0.000e+00
     3.9389   3.311110   1549.903  800519161  0.000e+00
     3.9431   3.311219   1542.205  800519171  0.000e+00
     3.9488   3.311427   1534.809  800519181  0.000e+00
     3.9592   3.312099   1527.485  800519191  0.000e+00
     3.9635   3.312234   1519.781  800519201  0.000e+00
     3.9624   3.312135   1518.660  800519211  0.000e+00
     3.9631   3.312240   1518.251  800519221  0.000e+00
     3.9637   3.312325   1518.387  800519231  0.000e+00
     3.9638   3.312391   1518.732  800519241  0.000e+00
     3.9643   3.312430   1518.452  800519251  0.000e+00
     3.9648   3.312502   1518.617  800519261  0.000e+00
     3.9644   3.312456   1518.279  800519271  0.000e+00
     3.9648   3.312548   1519.070  800519281  0.000e+00
     3.9640   3.312469   1518.710  800519291  0.000e+00
     3.9645   3.312483   1518.710  800519301  0.000e+00
     3.9640   3.312384   1516.360  800519311  0.000e+00
     3.9705   3.312597   1508.449  800519321  0.000e+00
     3.9822   3.313269   1500.494  800519331  0.000e+00
     3.9936   3.313961   1492.605  800519341  0.000e+00
     4.0034   3.314535   1484.629  800519351  0.000e+00
     4.0228   3.315994   1476.705  800519361  0.000e+00
     4.0361   3.316994   1468.989  800519371  0.000e+00
     4.0524   3.318145   1461.015  800519381  0.000e+00
     4.0637   3.318896   1452.798  800519391  0.000e+00
     4.0708   3.319327   1444.918  800519401  0.000e+00
     4.0870   3.320544   1437.240  800519411  0.000e+00
     4.0855   3.320128   1430.352  800519421  0.000e+00
     4.0958   3.320742   1423.091  800519431  0.000e+00
     4.1606   3.326473   1416.025  800519441  0.000e+00
     4.1910   3.329345   1408.642  800519451  0.000e+00
     4.1910   3.329060   1400.837  800519461  0.000e+00
     4.1513   3.324897   1393.212  800519471  0.000e+00
     4.1524   3.324495   1385.788  800519481  0.000e+00
     4.1642   3.325142   1378.070  800519491  0.000e+00
     4.1812   3.326274   1370.819  800519501  0.000e+00
     4.1867   3.326647   1365.951  800519511  0.000e+00
     4.1774   3.325866   1366.490  800519521  0.000e+00
     4.1807   3.326260   1366.518  800519531  0.000e+00
     4.1823   3.326378   1366.066  800519541  0.000e+00
     4.1859   3.326719   1366.647  800519551  0.000e+00
     4.1868   3.326844   1366.540  800519561  0.000e+00
     4.1911   3.327224   1366.288  800519571  0.000e+00
     4.1916   3.327303   1366.044  800519581  0.000e+00
     4.1910   3.327310   1366.870  800519591  0.000e+00
     4.1925   3.327428   1366.374  800519601  0.000e+00
     4.1935   3.327520   1366.417  800519611  0.000e+00
     4.1952   3.327630   1364.156  800519621  0.000e+00
     4.2079   3.328396   1356.231  800519631  0.000e+00
     4.2652   3.333303   1348.393  800519641  0.000e+00
     4.3440   3.340389   1340.232  800519651  0.000e+00
     4.3917   3.345383   1332.394  800519661  0.000e+00
     4.4159   3.347590   1324.966  800519671  0.000e+00
     4.4231   3.348252   1316.943  800519681  0.000e+00
     4.4342   3.349097   1308.590  800519691  0.000e+00
     4.4486   3.350009   1301.055  800519701  0.000e+00
     4.4351   3.348481   1293.478  800519711  0.000e+00
     4.3915   3.344039   1285.342  800519721  0.000e+00
     4.4052   3.344615   1277.292  800519731  0.000e+00
     4.4407   3.347499   1269.479  800519741  0.000e+00
     4.4673   3.349655   1262.169  800519751  0.000e+00
     4.5096   3.353205   1253.798  800519761  0.000e+00
     4.5234   3.354394   1246.438  800519771  0.000e+00
     4.5518   3.356834   1238.914  800519781  0.000e+00
     4.5707   3.358445   1231.613  800519791  0.000e+00
     4.5858   3.359668   1224.046  800519801  0.000e+00
     4.5927   3.360146   1216.639  800519811  0.000e+00
     4.5858   3.359520   1215.096  800519821  0.000e+00
     4.5774   3.358696   1214.688  800519831  0.000e+00
     4.5743   3.358354   1215.060  800519841  0.000e+00
     4.5729   3.358242   1214.952  800519851  0.000e+00
     4.5729   3.358262   1214.931  800519861  0.000e+00
     4.5760   3.358558   1215.045  800519871  0.000e+00
     4.5761   3.358571   1215.024  800519881  0.000e+00
     4.5769   3.358710   1214.959  800519891  0.000e+00
     4.5749   3.358525   1214.931  800519901  0.000e+00
     4.5735   3.358374   1215.138  800519911  0.000e+00
     4.5737   3.358374   1214.729  800519921  0.000e+00
     4.5811   3.358873   1210.513  800519931  0.000e+00
     4.5774   3.358080   1202.581  800519941  0.000e+00
     4.6036   3.359737   1194.486  800519951  0.000e+00
     4.6110   3.360037   1186.255  800519961  0.000e+00
     4.6715   3.364936   1178.211  800519971  0.000e+00
     4.7345   3.370933   1170.109  800519981  0.000e+00
     4.7712   3.374275   1162.102  800519991  0.000e+00
     4.8430   3.380674   1153.507  800520001  0.000e+00
     4.9218   3.388274   1145.221  800520011  0.000e+00
     4.9852   3.394274   1138.239  800520021  0.000e+00
     4.9861   3.394682   1131.058  800520031  0.000e+00
     5.0691   3.402294   1123.754  800520041  0.000e+00
     5.0785   3.403337   1116.273  800520051  0.000e+00
     5.0811   3.403714   1113.155  800520061  0.000e+00
     5.0832   3.404104   1113.097  800520071  0.000e+00
     5.0913   3.405038   1113.456  800520081  0.000e+00
     5.0931   3.405349   1113.220  800520091  0.000e+00
     5.0959   3.405627   1112.818  800520101  0.000e+00
     5.0934   3.405554   1113.491  800520111  0.000e+00
     5.0876   3.405051   1113.298  800520121  0.000e+00
     5.0859   3.404932   1113.240  800520131  0.000e+00
     5.0857   3.404919   1112.939  800520141  0.000e+00
     5.0857   3.404965   1113.332  800520151  0.000e+00
     5.0866   3.405045   1113.483  800520161  0.000e+00
     5.0894   3.405156   1110.458  800520171  0.000e+00
     5.1146   3.407007   1102.024  800520181  0.000e+00
     5.1474   3.409707   1093.948  800520191  0.000e+00
     5.1955   3.413825   1085.501  800520201  0.000e+00
     5.2532   3.419013   1077.254  800520211  0.000e+00
     5.3064   3.423879   1068.893  800520221  0.000e+00
     5.3187   3.424991   1060.469  800520231  0.000e+00
     5.3704   3.429509   1052.109  800520241  0.000e+00
     5.4238   3.434400   1043.886  800520251  0.000e+00
     5.4977   3.441143   1037.010  800520261  0.000e+00
     5.5391   3.445070   1029.704  800520271  0.000e+00
     5.5625   3.447356   1022.584  800520281  0.000e+00
     5.5973   3.450554   1015.123  800520291  0.000e+00
     5.6283   3.453421   1008.248  800520301  0.000e+00
     5.6986   3.459971   1000.865  800520311  0.000e+00
     5.7242   3.462501    993.003  800520321  0.000e+00
     5.7486   3.464711    985.534  800520331  0.000e+00
     5.8064   3.469755    977.351  800520341  0.000e+00
     5.8386   3.472755    969.797  800520351  0.000e+00
     5.8861   3.477096    962.308  800520361  0.000e+00
     5.9358   3.481661    954.620  800520371  0.000e+00
     5.9768   3.485559    947.025  800520381  0.000e+00
     5.9742   3.485552    944.190  800520391  0.000e+00
     5.9776   3.486079    943.853  800520401  0.000e+00
     5.9846   3.486875    944.218  800520411  0.000e+00
     5.9871   3.487249    944.776  800520421  0.000e+00
     5.9910   3.487623    944.203  800520431  0.000e+00
     5.9991   3.488458    943.485  800520441  0.000e+00
     5.9986   3.488599    944.129  800520451  0.000e+00
     6.0020   3.488906    943.914  800520461  0.000e+00
     5.9963   3.488452    944.200  800520471  0.000e+00
     5.9959   3.488418    944.457  800520481  0.000e+00
     5.9969   3.488505    943.948  800520491  0.000e+00
     6.0016   3.489006    943.948  800520501  0.000e+00
     6.0048   3.489159    941.850  800520511  0.000e+00
     6.0575   3.493556    934.427  800520521  0.000e+00
     6.0676   3.494302    926.525  800520531  0.000e+00
     6.1626   3.502784    918.909  800520541  0.000e+00
     6.2346   3.509183    911.261  800520551  0.000e+00
     6.2670   3.512517    903.839  800520561  0.000e+00
     6.3108   3.516362    895.924  800520571  0.000e+00
     6.3666   3.521624    888.089  800520581  0.000e+00
     6.4350   3.527755    880.948  800520591  0.000e+00
     6.4532   3.529732    873.157  800520601  0.000e+00
     6.5486   3.538462    865.393  800520611  0.000e+00
     6.5590   3.539509    859.734  800520621  0.000e+00
     6.5513   3.539254    859.933  800520631  0.000e+00
     6.5696   3.541069    860.555  800520641  0.000e+00
     6.5786   3.542017    859.997  800520651  0.000e+00
     6.5818   3.542386    859.917  800520661  0.000e+00
     6.5782   3.542245    859.703  800520671  0.000e+00
     6.5760   3.542165    860.524  800520681  0.000e+00
     6.5798   3.542588    860.202  800520691  0.000e+00
     6.5759   3.542272    859.993  800520701  0.000e+00
     6.5759   3.542279    860.208  800520711  0.000e+00
     6.5805   3.542743    859.999  800520721  0.000e+00
     6.6423   3.548169    854.119  800520731  0.000e+00
     6.7119   3.554263    845.670  800520741  0.000e+00
     6.5721   3.539784    837.565  800520751  0.000e+00
     6.7724   3.558365    829.117  800520761  0.000e+00
     6.7768   3.558059    820.385  800520771  0.000e+00
     6.8687   3.566142    813.219  800520781  0.000e+00
     6.9071   3.569767    805.781  800520791  0.000e+00
     7.0016   3.578610    798.509  800520801  0.000e+00
     7.0153   3.579641    790.942  800520811  0.000e+00
     7.0355   3.581333    783.263  800520821  0.000e+00
     7.1351   3.590126    775.977  800520831  0.000e+00
     7.1837   3.594342    768.899  800520841  0.000e+00
     7.2457   3.600211    761.356  800520851  0.000e+00
     7.2718   3.602415    753.748  800520861  0.000e+00
     7.3313   3.607286    746.077  800520871  0.000e+00
     7.4075   3.614634    739.280  800520881  0.000e+00
     7.4273   3.615987    731.309  800520891  0.000e+00
     7.4862   3.621368    723.660  800520901  0.000e+00
     7.8473   3.656605    716.129  800520911  0.000e+00
     7.9733   3.671244    708.417  800520921  0.000e+00
     7.9587   3.670739    706.750  800520931  0.000e+00
     7.9911   3.674511    707.179  800520941  0.000e+00
     7.9932   3.675309    707.228  800520951  0.000e+00
     7.9904   3.675555    706.939  800520961  0.000e+00
     7.9908   3.675841    707.137  800520971  0.000e+00
     7.9901   3.675903    707.164  800520981  0.000e+00
     7.9919   3.676278    706.971  800520991  0.000e+00
     7.9867   3.675896    707.260  800521001  0.000e+00
     7.9922   3.676517    707.282  800521011  0.000e+00
     7.9940   3.676715    707.330  800521021  0.000e+00
     7.9945   3.676844    706.741  800521031  0.000e+00
     7.9960   3.676987    706.805  800521041  0.000e+00
     7.9952   3.676960    707.218  800521051  0.000e+00
     7.9941   3.676885    706.923  800521061  0.000e+00
     7.9967   3.677124    707.164  800521071  0.000e+00
     7.9967   3.677179    707.014  800521081  0.000e+00
     7.9956   3.677070    707.475  800521091  0.000e+00
     7.9973   3.677172    706.553  800521101  0.000e+00
     7.9981   3.677308    706.923  800521111  0.000e+00
     7.9987   3.677349    707.271  800521121  0.000e+00
     7.9979   3.677308    707.191  800521131  0.000e+00
     7.9966   3.677199    706.912  800521141  0.000e+00
     7.9997   3.677499    706.703  800521151  0.000e+00
     8.0016   3.677629    706.703  800521161  0.000e+00
     7.9985   3.677404    706.686  800521171  0.000e+00
     8.0002   3.677547    706.799  800521181  0.000e+00
     7.9974   3.677068    703.819  800521191  0.000e+00
     8.1197   3.687852    696.021  800521201  0.000e+00
     8.1217   3.688061    688.133  800521211  0.000e+00
     8.2007   3.694954    680.850  800521221  0.000e+00
     8.1655   3.692281    680.486  800521231  0.000e+00
     8.1369   3.689862    681.129  800521241  0.000e+00
     8.1505   3.690976    681.027  800521251  0.000e+00
     8.1579   3.691755    681.032  800521261  0.000e+00
     8.1602   3.692035    680.818  800521271  0.000e+00
     8.1809   3.694045    680.394  800521281  0.000e+00
     8.1828   3.694250    680.909  800521291  0.000e+00
     8.1928   3.695173    681.209  800521301  0.000e+00
     8.1963   3.695542    680.635  800521311  0.000e+00
     8.1897   3.695091    680.656  800521321  0.000e+00
     8.2356   3.698801    673.653  800521331  0.000e+00
     8.3022   3.704996    665.851  800521341  0.000e+00
     8.3571   3.709806    658.115  800521351  0.000e+00
     8.3997   3.713494    650.105  800521361  0.000e+00
     8.4878   3.720762    642.241  800521371  0.000e+00
     8.5403   3.725573    634.205  800521381  0.000e+00
     8.6093   3.731086    626.347  800521391  0.000e+00
     8.7079   3.739988    618.982  800521401  0.000e+00
     8.7670   3.745578    610.798  800521411  0.000e+00
     8.7911   3.747831    605.163  800521421  0.000e+00
     8.7549   3.745040    605.168  800521431  0.000e+00
     8.7763   3.747034    605.323  800521441  0.000e+00
     8.7813   3.747838    605.987  800521451  0.000e+00
     8.7886   3.748443    605.328  800521461  0.000e+00
     8.7923   3.748876    605.649  800521471  0.000e+00
     8.7911   3.748897    605.504  800521481  0.000e+00
     8.7917   3.749027    605.526  800521491  0.000e+00
     8.7900   3.748924    605.445  800521501  0.000e+00
     8.7926   3.749172    605.814  800521511  0.000e+00
     8.7901   3.748938    605.755  800521521  0.000e+00
     8.8024   3.749734    600.613  800521531  0.000e+00
     8.8619   3.754663    593.099  800521541  0.000e+00
     9.0091   3.768423    584.959  800521551  0.000e+00
     9.0745   3.774829    577.056  800521561  0.000e+00
     9.1102   3.778426    569.222  800521571  0.000e+00
     9.1479   3.781955    561.255  800521581  0.000e+00
     9.2064   3.787515    553.079  800521591  0.000e+00
     9.2541   3.792188    545.481  800521601  0.000e+00
     9.3618   3.802503    537.863  800521611  0.000e+00
     9.4207   3.808531    530.043  800521621  0.000e+00
     9.4530   3.812017    523.025  800521631  0.000e+00
     9.4712   3.813779    516.393  800521641  0.000e+00
     9.4684   3.813278    508.990  800521651  0.000e+00
     9.4534   3.811248    502.054  800521661  0.000e+00
     9.5226   3.817420    494.588  800521671  0.000e+00
     9.5704   3.822232    486.801  800521681  0.000e+00
     9.5831   3.823421    479.523  800521691  0.000e+00
     9.6105   3.826073    472.144  800521701  0.000e+00
     9.6593   3.830611    464.615  800521711  0.000e+00
     9.6724   3.831739    457.424  800521721  0.000e+00
     9.6650   3.831212    455.866  800521731  0.000e+00
     9.6757   3.832266    455.571  800521741  0.000e+00
     9.6790   3.832738    455.871  800521751  0.000e+00
     9.6789   3.832835    455.704  800521761  0.000e+00
     9.6785   3.832890    455.880  800521771  0.000e+00
     9.6771   3.832821    455.884  800521781  0.000e+00
     9.6783   3.832960    456.034  800521791  0.000e+00
     9.6778   3.832904    455.798  800521801  0.000e+00
     9.6752   3.832744    455.829  800521811  0.000e+00
     9.6760   3.832772    455.824  800521821  0.000e+00
     9.6761   3.832786    456.004  800521831  0.000e+00
     9.6755   3.832752    456.261  800521841  0.000e+00
     9.6740   3.832543    455.431  800521851  0.000e+00
     9.6751   3.832696    455.735  800521861  0.000e+00
     9.6711   3.832328    456.142  800521871  0.000e+00
     9.6737   3.832627    456.013  800521881  0.000e+00
     9.6752   3.832731    455.675  800521891  0.000e+00
     9.6741   3.832633    455.722  800521901  0.000e+00
     9.6741   3.832613    455.872  800521911  0.000e+00
     9.6760   3.832793    456.107  800521921  0.000e+00
     9.6766   3.832842    456.026  800521931  0.000e+00
     9.6760   3.832765    455.684  800521941  0.000e+00
     9.6750   3.832724    455.577  800521951  0.000e+00
     9.6721   3.832453    456.137  800521961  0.000e+00
     9.6722   3.832460    456.223  800521971  0.000e+00
     9.6726   3.832474    455.581  800521981  0.000e+00
     9.6728   3.832460    455.761  800521991  0.000e+00
     9.6704   3.832280    456.120  800522001  0.000e+00
     9.6711   3.832363    456.274  800522011  0.000e+00
     9.6726   3.832439    455.671  800522021  0.000e+00
     9.6734   3.832529    455.590  800522031  0.000e+00
     9.6695   3.832141    456.296  800522041  0.000e+00
     9.6697   3.832190    456.189  800522051  0.000e+00
     9.6692   3.832086    455.915  800522061  0.000e+00
     9.6701   3.832183    455.872  800522071  0.000e+00
     9.6689   3.832106    455.962  800522081  0.000e+00
     9.6699   3.832259    456.176  800522091  0.000e+00
     9.6709   3.832273    455.940  800522101  0.000e+00
     9.6676   3.831954    456.133  800522111  0.000e+00
     9.6692   3.832120    455.919  800522121  0.000e+00
     9.6696   3.832176    456.009  800522131  0.000e+00
     9.6704   3.832203    455.795  800522141  0.000e+00
     9.6672   3.831884    456.030  800522151  0.000e+00
     9.6692   3.832072    455.731  800522161  0.000e+00
     9.6676   3.832009    456.398  800522171  0.000e+00
     9.6677   3.832030    455.842  800522181  0.000e+00
     9.6690   3.832099    455.778  800522191  0.000e+00
     9.6680   3.832002    455.885  800522201  0.000e+00
     9.6689   3.832100    456.163  800522211  0.000e+00
     9.6686   3.832037    456.103  800522221  0.000e+00
     9.6663   3.831794    456.184  800522231  0.000e+00
     9.6685   3.832058    455.735  800522241  0.000e+00
     9.6680   3.831982    456.060  800522251  0.000e+00
     9.6684   3.832037    456.167  800522261  0.000e+00
     9.6684   3.832065    456.039  800522271  0.000e+00
     9.6863   3.833352    448.917  800522281  0.000e+00
     9.7646   3.840296    440.464  800522291  0.000e+00
     9.8109   3.844299    432.693  800522301  0.000e+00
     9.8906   3.851869    424.523  800522311  0.000e+00
     9.9482   3.857553    416.432  800522321  0.000e+00
     9.9903   3.861257    408.306  800522331  0.000e+00
    10.0523   3.867038    401.268  800522341  0.000e+00
    10.0903   3.870948    393.969  800522351  0.000e+00
    10.0676   3.868286    387.150  800522361  0.000e+00
    10.0860   3.869738    379.984  800522371  0.000e+00
    10.0715   3.867744    372.306  800522381  0.000e+00
    10.1205   3.872254    365.381  800522391  0.000e+00
    10.2559   3.886630    357.660  800522401  0.000e+00
    10.2465   3.886057    353.383  800522411  0.000e+00
    10.2402   3.885729    353.644  800522421  0.000e+00
    10.2386   3.885757    353.729  800522431  0.000e+00
    10.2365   3.885590    353.729  800522441  0.000e+00
    10.2284   3.884669    354.161  800522451  0.000e+00
    10.2275   3.884572    354.033  800522461  0.000e+00
    10.2275   3.884613    353.862  800522471  0.000e+00
    10.2273   3.884648    353.481  800522481  0.000e+00
    10.2283   3.884739    353.887  800522491  0.000e+00
    10.2279   3.884753    353.656  800522501  0.000e+00
    10.2292   3.884892    353.930  800522511  0.000e+00
    10.2317   3.885073    352.206  800522521  0.000e+00
    10.2507   3.886604    343.798  800522531  0.000e+00
    10.1985   3.880423    335.633  800522541  0.000e+00
    10.0307   3.861074    327.419  800522551  0.000e+00
    10.0611   3.862281    319.704  800522561  0.000e+00
    10.1086   3.865939    311.606  800522571  0.000e+00
    10.1411   3.868080    304.551  800522581  0.000e+00
    10.1298   3.867188    302.990  800522591  0.000e+00
    10.1295   3.867244    303.336  800522601  0.000e+00
    10.1331   3.867369    303.140  800522611  0.000e+00
    10.1370   3.867871    303.251  800522621  0.000e+00
    10.1376   3.867947    303.015  800522631  0.000e+00
    10.1351   3.867766    303.443  800522641  0.000e+00
    10.1390   3.868038    302.870  800522651  0.000e+00
    10.1414   3.868302    303.208  800522661  0.000e+00
    10.1406   3.868302    303.383  800522671  0.000e+00
    10.1401   3.868254    302.955  800522681  0.000e+00
    10.1405   3.867910    296.268  800522691  0.000e+00
    10.2520   3.878028    288.419  800522701  0.000e+00
    10.3601   3.888903    280.276  800522711  0.000e+00
    10.5059   3.904143    272.200  800522721  0.000e+00
    10.5982   3.914676    264.118  800522731  0.000e+00
    10.6690   3.922518    255.637  800522741  0.000e+00
    10.7158   3.927404    248.991  800522751  0.000e+00
    10.7674   3.932390    241.726  800522761  0.000e+00
    10.8121   3.936838    234.461  800522771  0.000e+00
    10.8374   3.939283    227.115  800522781  0.000e+00
    10.8578   3.940928    219.829  800522791  0.000e+00
    10.8885   3.943858    212.245  800522801  0.000e+00
    10.9550   3.950277    204.024  800522811  0.000e+00
    10.9608   3.950695    196.825  800522821  0.000e+00
    11.0086   3.955440    189.114  800522831  0.000e+00
    11.0540   3.959660    181.364  800522841  0.000e+00
    11.0671   3.960929    174.106  800522851  0.000e+00
    11.0890   3.962838    166.097  800522861  0.000e+00
    11.1190   3.965514    158.348  800522871  0.000e+00
    11.1410   3.967501    151.045  800522881  0.000e+00
    11.2000   3.973330    143.233  800522891  0.000e+00
    11.2814   3.981861    135.674  800522901  0.000e+00
    11.3224   3.986353    127.927  800522911  0.000e+00
    11.3100   3.984877    120.330  800522921  0.000e+00
    11.3093   3.984423    112.302  800522931  0.000e+00
    11.3075   3.983659    105.194  800522941  0.000e+00
    11.2843   3.980254     97.341  800522951  0.000e+00
    11.3108   3.982547     90.045  800522961  0.000e+00
    11.2869   3.979361     82.489  800522971  0.000e+00
    11.3141   3.981492     75.406  800522981  0.000e+00
    11.3172   3.980736     68.644  800522991  0.000e+00
    11.3271   3.980719     61.391  800523001  0.000e+00
    11.3355   3.981124     53.773  800523011  0.000e+00
    11.4002   3.986342     46.539  800523021  0.000e+00
    11.4600   3.990821     38.733  800523031  0.000e+00
    11.5899   4.001547     31.073  800523041  0.000e+00
    11.5844   4.001744     30.845  800523051  0.000e+00
    11.7027   4.012188     30.205  800523061  0.000e+00
    11.6992   4.012626     30.674  800523071  0.000e+00
    11.6964   4.012803     30.742  800523081  0.000e+00
    11.6792   4.011764     30.446  800523091  0.000e+00
    11.6848   4.012139     30.617  800523101  0.000e+00
    11.6631   4.010436     31.001  800523111  0.000e+00
    11.6793   4.011764     30.873  800523121  0.000e+00
    11.6831   4.012266     30.386  800523131  0.000e+00
    11.7823   4.020917     28.703  800523141  0.000e+00
    12.0109   4.040699     26.914  800523151  0.000e+00
    12.0977   4.049928     24.653  800523161  0.000e+00
    12.1080   4.051800     22.779  800523171  0.000e+00
    12.1363   4.054892     20.624  800523181  0.000e+00
    12.2192   4.062593     18.469  800523191  0.000e+00
    12.2691   4.067655     14.141  800523201  0.000e+00
    12.3509   4.076075      7.513  800523211  0.000e+00
    12.3602   4.077248      5.295  800523221  0.000e+00
    12.3606   4.077646      4.743  800523231  0.000e+00
    12.3613   4.078016      5.170  800523241  0.000e+00
    12.3592   4.078044      5.152  800523251  0.000e+00
    12.3586   4.078073      5.347  800523261  0.000e+00
    12.3579   4.078151      5.219  800523271  0.000e+00
    12.3603   4.078442      5.009  800523281  0.000e+00
    12.3577   4.078165      4.927  800523291  0.000e+00
    12.3617   4.078613      4.951  800523301  0.000e+00
    12.3619   4.078713      5.143  800523311  0.000e+00
    12.3811   4.080240      0.965  800523321  0.000e+00
    12.3892   3.931927      0.584  800523331  0.000e+00
    12.4055   2.009910      0.587  800523341  0.000e+00
    12.4241   1.874780      0.566  800523351  0.000e+00
    12.4313   1.995333      0.548  800523361  0.000e+00
    12.4355   2.018894      0.569  800523371  0.000e+00
    12.4428   2.020265      0.508  800523381  0.000e+00
    12.4528   0.000033      0.514  800523391  0.000e+00
    12.4651  -0.000012      0.535  800523401  0.000e+00
    12.4800  -0.000012      0.496  800523411  0.000e+00
    12.4981  -0.000009      0.499  800523421  0.000e+00
    12.5174   0.000017      0.499  800523431  0.000e+00
    12.5350   0.000020      0.480  800523441  0.000e+00
    12.5530   0.000020      0.438  800523451  0.000e+00
    12.5720   0.000020      0.462  800523461  0.000e+00
    12.5881   0.000020      0.441  800523471  0.000e+00
    12.6054   0.000020      0.422  800523481  0.000e+00
    12.6220   0.000020      0.401  800523491  0.000e+00
    12.6386   0.000020      0.404  800523501  0.000e+00
    12.6569   0.000020      0.385  800523511  0.000e+00
    12.6747   0.000020      0.407  800523521  0.000e+00
    12.6939   0.000020      0.407  800523531  0.000e+00
    12.7138   0.000020      0.410  800523541  0.000e+00
    12.7337   0.000020      0.431  800523551  0.000e+00
    12.7504   0.000020      0.410  800523561  0.000e+00
    12.7686   0.000020      0.412  800523571  0.000e+00
    12.7857   0.000020      0.412  800523581  0.000e+00
    12.8038   0.000020      0.370  800523591  0.000e+00
    12.8242   0.000017      0.394  800523601  0.000e+00
    12.8389   0.000020      0.375  800523611  0.000e+00
    12.8574   0.000017      0.418  800523621  0.000e+00
    12.8742   0.000020      0.400  800523631  0.000e+00
    12.8915   0.000020      0.400  800523641  0.000e+00
    12.9104   0.000020      0.400  800523651  0.000e+00
    12.9284   0.000020      0.421  800523661  0.000e+00
    12.9468   0.000020      0.421  800523671  0.000e+00
    12.9657   0.000020      0.402  800523681  0.000e+00
    12.9851   0.000020      0.424  800523691  0.000e+00
    12.9988   0.000017      0.402  800523701  0.000e+00
    13.0157   0.000020      0.405  800523711  0.000e+00
    13.0325   0.000020      0.448  800523721  0.000e+00
    13.0474   0.000020      0.362  800523731  0.000e+00
    13.0618   0.000017      0.429  800523741  0.000e+00
    13.0777   0.000020      0.429  800523751  0.000e+00
    13.0935   0.000020      0.408  800523761  0.000e+00
    13.1088   0.000020      0.453  800523771  0.000e+00
    13.1232   0.000020      0.411  800523781  0.000e+00
    13.1383   0.000020      0.389  800523791  0.000e+00
    13.1506   0.000020      0.413  800523801  0.000e+00
    13.1657   0.000020      0.453  800523811  0.000e+00
    13.1802   0.000020      0.413  800523821  0.000e+00
    13.1917   0.000017      0.432  800523831  0.000e+00
    13.2046   0.000020      0.411  800523841  0.000e+00
    13.2138   0.000020      0.413  800523851  0.000e+00
    13.2243   0.000020      0.437  800523861  0.000e+00
    13.2340   0.000020      0.413  800523871  0.000e+00
    13.2459   0.000020      0.437  800523881  0.000e+00
    13.2574   0.000020      0.416  800523891  0.000e+00
    13.2666   0.000020      0.416  800523901  0.000e+00
    13.2762   0.000020      0.419  800523911  0.000e+00
    13.2840   0.000020      0.461  800523921  0.000e+00
    13.2928   0.000020      0.461  800523931  0.000e+00
    13.3013   0.000020      0.443  800523941  0.000e+00
    13.3090   0.000020      0.461  800523951  0.000e+00
    13.3192   0.000020      0.440  800523961  0.000e+00
    13.3287   0.000020      0.443  800523971  0.000e+00
    13.3362   0.000020      0.421  800523981  0.000e+00
    13.3480   0.000023      0.488  800523991  0.000e+00
    13.3420   0.000023      0.488  800524001  0.000e+00
    13.3632   0.000020      0.424  800524011  0.000e+00
    13.3771   0.000020      0.467  800524021  0.000e+00
    13.3875   0.000023      0.427  800524031  0.000e+00
    13.3948   0.000020      0.448  800524041  0.000e+00
    13.4013   0.000020      0.427  800524051  0.000e+00
    13.4040   0.000020      0.427  800524061  0.000e+00
    13.4093   0.000020      0.408  800524071  0.000e+00
    13.4127   0.000020      0.429  800524081  0.000e+00
    13.4133   0.000023      0.472  800524091  0.000e+00
    13.4122   0.000020      0.496  800524101  0.000e+00
    13.4173   0.000020      0.475  800524111  0.000e+00
    13.4201   0.000020      0.517  800524121  0.000e+00
    13.4224   0.000020      0.496  800524131  0.000e+00
    13.4242   0.000020      0.496  800524141  0.000e+00
    13.4280   0.000020      0.520  800524151  0.000e+00
    13.4318   0.000023      0.520  800524161  0.000e+00
    13.4344   0.000020      0.541  800524171  0.000e+00
    13.4375   0.000020      0.563  800524181  0.000e+00
    13.4403   0.000020      0.584  800524191  0.000e+00
    13.4412   0.000023      0.565  800524201  0.000e+00
    13.4433   0.000023      0.565  800524211  0.000e+00
    13.4461   0.000020      0.584  800524221  0.000e+00
    13.4484   0.000020      0.587  800524231  0.000e+00
    13.4501   0.000023      0.608  800524241  0.000e+00
    13.4529   0.000020      0.587  800524251  0.000e+00
    13.4579   0.000020      0.632  800524261  0.000e+00
    13.4604   0.000023      0.651  800524271  0.000e+00
    13.4632   0.000020      0.632  800524281  0.000e+00
    13.4668   0.000020      0.632  800524291  0.000e+00
    13.4702   0.000020      0.632  800524301  0.000e+00
    13.4742   0.000023      0.653  800524311  0.000e+00
    13.4783   0.000023      0.634  800524321  0.000e+00
    13.4811   0.000023      0.613  800524331  0.000e+00
    13.4875   0.000023      0.634  800524341  0.000e+00
    13.4915   0.000023      0.656  800524351  0.000e+00
    13.4962   0.000023      0.656  800524361  0.000e+00
    13.4996   0.000020      0.656  800524371  0.000e+00
    13.5045   0.000020      0.656  800524381  0.000e+00
    13.5095   0.000023      0.701  800524391  0.000e+00
    13.5130   0.000023      0.679  800524401  0.000e+00
    13.5196   0.000023      0.682  800524411  0.000e+00
    13.5244   0.000023      0.679  800524421  0.000e+00
    13.5295   0.000023      0.722  800524431  0.000e+00
    13.5356   0.000023      0.706  800524441  0.000e+00
    13.5418   0.000023      0.682  800524451  0.000e+00
    13.5468   0.000023      0.682  800524461  0.000e+00
    13.5506   0.000023      0.682  800524471  0.000e+00
    13.5564   0.000023      0.682  800524481  0.000e+00
    13.5616   0.000023      0.727  800524491  0.000e+00
    13.5672   0.000020      0.703  800524501  0.000e+00
    13.5727   0.000023      0.751  800524511  0.000e+00
    13.5778   0.000023      0.727  800524521  0.000e+00
    13.5823   0.000020      0.706  800524531  0.000e+00
    13.5886   0.000023      0.751  800524541  0.000e+00
    13.5961   0.000020      0.730  800524551  0.000e+00
    13.6037   0.000023      0.708  800524561  0.000e+00
    13.6122   0.000023      0.730  800524571  0.000e+00
    13.6195   0.000023      0.730  800524581  0.000e+00
    13.6264   0.000023      0.732  800524591  0.000e+00
    13.6337   0.000023      0.734  800524601  0.000e+00
    13.6463   0.000023      0.732  800524611  0.000e+00
    13.6570   0.000023      0.732  800524621  0.000e+00
    13.6667   0.000023      0.753  800524631  0.000e+00
    13.6760   0.000023      0.734  800524641  0.000e+00
    13.6866   0.000023      0.734  800524651  0.000e+00
    13.6962   0.000020      0.777  800524661  0.000e+00
    13.7058   0.000023      0.756  800524671  0.000e+00
    13.7145   0.000020      0.734  800524681  0.000e+00
    13.7225   0.000023      0.737  800524691  0.000e+00
    13.7287   0.000023      0.758  800524701  0.000e+00
    13.7379   0.000020      0.737  800524711  0.000e+00
    13.7486   0.000023      0.718  800524721  0.000e+00
    13.7587   0.000020      0.761  800524731  0.000e+00
    13.7679   0.000020      0.758  800524741  0.000e+00
    13.7770   0.000023      0.720  800524751  0.000e+00
    13.7850   0.000023      0.739  800524761  0.000e+00
    13.7928   0.000023      0.761  800524771  0.000e+00
    13.7872   0.000023      0.718  800524781  0.000e+00
    13.8052   0.000023      0.742  800524791  0.000e+00
    13.8165   0.000023      0.744  800524801  0.000e+00
    13.8307   0.000020      0.742  800524811  0.000e+00
    13.8447   0.000023      0.720  800524821  0.000e+00
    13.8555   0.000023      0.742  800524831  0.000e+00
    13.8639   0.000023      0.742  800524841  0.000e+00
    13.8750   0.000023      0.720  800524851  0.000e+00
    13.8843   0.000023      0.720  800524861  0.000e+00
    13.8936   0.000023      0.723  800524871  0.000e+00
    13.9033   0.000020      0.723  800524881  0.000e+00
    13.9127   0.000023      0.744  800524891  0.000e+00
    13.9226   0.000023      0.768  800524901  0.000e+00
    13.9308   0.000023      0.744  800524911  0.000e+00
    13.9398   0.000023      0.789  800524921  0.000e+00
    13.9489   0.000020      0.746  800524931  0.000e+00
    13.9575   0.000023      0.768  800524941  0.000e+00
    13.9670   0.000023      0.768  800524951  0.000e+00
    13.9755   0.000023      0.768  800524961  0.000e+00
    13.9831   0.000023      0.791  800524971  0.000e+00
    13.9919   0.000023      0.768  800524981  0.000e+00
    14.0009   0.000023      0.770  800524991  0.000e+00
    14.0110   0.000023      0.791  800525001  0.000e+00
    14.0213   0.000023      0.813  800525011  0.000e+00
    14.0331   0.000023      0.791  800525021  0.000e+00
    14.0687   0.000023      0.791  800525031  0.000e+00
    14.1257   0.000023      0.810  800525041  0.000e+00
    14.1633   0.000023      0.834  800525051  0.000e+00
    14.1729   0.000023      0.813  800525061  0.000e+00
    14.1755   0.000023      0.834  800525071  0.000e+00
    14.1836   0.000023      0.815  800525081  0.000e+00
    14.1973   0.000023      0.834  800525091  0.000e+00
    14.2091   0.000023      0.813  800525101  0.000e+00
    -1.7414   1.190790 -11767.051  170864567  0.000e+00
    -1.8293   1.281470 -11767.080  170864567  0.000e+00
    -1.9168   0.993086 -11767.066  170930103  0.000e+00
    -2.0040   0.792779 -10139.154    8716288  0.000e+00
    34.8627  -1.049051  -8680.761  134234388  0.000e+00
    99.0000  -0.283440  -1420.756 2147827720  0.000e+00
     2.9270 -99.000000  26464.302 1241876520  0.000e+00
   -20.3833 -99.000000 -13809.233  738722312  0.000e+00
   308.5930 -99.000000 -62442.317  436212648  0.000e+00
   -38.5739 -99.000000 100410.616   25299080  0.000e+00
   -30.1275  -0.174969   1343.086    5316608  0.000e+00
   139.8318   9.767470  -8190.484 2686459905  0.000e+00
   -30.2749  -1.046557  -4684.768  540017708  0.000e+00
   656.8541   1.717330 -10270.071     208928  0.000e+00
    18.1009  -0.880434 -10366.507     524813  0.000e+00
   -12.7324  -0.697344 -69929.979  637618468  0.000e+00
    58.9255  66.038519  13363.302   16853920  0.000e+00
    65.0101  -0.299642 -65911.878  277364736  0.000e+00
    19.5668  87.599750  75703.366 4255629307  0.000e+00
    99.0000 -99.000000 -32893.182 3590061815  0.000e+00
    99.0000 -99.000000 -54996.340 4160741964  0.000e+00
    99.0000 -99.000000 196421.349  668990719  0.000e+00
   -48.8634 -99.000000 248218.608 3210730749  0.000e+00
    99.0000 -99.000000   9918.788 2078276575  0.000e+00
    99.0000 -99.000000  25818.764 3086707710  0.000e+00
    99.0000 -99.000000 -34972.181 4009754607  0.000e+00
    99.0000 -99.000000 -70049.726 3990354559  0.000e+00
   -25.9470 -99.000000 106926.378 4223659759  0.000e+00
    99.0000 -99.000000 -65371.309 4290248191  0.000e+00
    99.0000 -99.000000  22903.717  494919423  0.000e+00
    99.0000 -99.000000 -52142.533 4002916335  0.000e+00
   -44.9431 -99.000000  66509.206 4271634363  0.000e+00
    99.0000 -99.000000  26483.456 2080364221  0.000e+00
    99.0000 -99.000000  42204.335 3221209087  0.000e+00
   -50.1549 -99.000000  -9843.283 2952785131  0.000e+00
    99.0000 -99.000000  -5314.263   33649667  0.000e+00
   -27.4036  -1.024216 -10844.539 1359231632  0.000e+00
   -26.3565  -0.356046   7082.820      33554  0.000e+00
    58.6747  -1.056057  61400.340 2551096838  0.000e+00
   458.1266  -1.038811 -69692.740   33817668  0.000e+00
   -27.0943 -99.000000  41020.517   33701956  0.000e+00
   -16.7435  87.156009   6026.028 2149639184  0.000e+00
   120.3756   3.367532   4366.326     524356  0.000e+00
    -5.4001   2.432208 -66406.530  135290937  0.000e+00
   128.2843  94.137633 113423.862  537398274  0.000e+00
    99.0000 -99.000000   1560.456   80740421  0.000e+00
   -99.0000   2.000429 -62405.607  705239782  0.000e+00
    99.0000 -99.000000  -5546.475     589827  0.000e+00
   102.8083 -99.000000 -10792.184       2560  0.000e+00
    99.0000 -99.000000 -10792.184          0  0.000e+00
    99.0000 -99.000000 -10417.278      10434  0.000e+00
    99.0000 -99.000000 -10792.184          0  0.000e+00
   203.7598 -99.000000 -10708.504 4108022528  0.000e+00
    99.0000  -1.043352 -63998.006    9495818  0.000e+00
    82.6701 -99.000000   1434.714 4108008960  0.000e+00
    99.0000  -1.050280  31023.708 3769108900  0.000e+00
   -49.1390 -99.000000 -10792.184   16842751  0.000e+00
    99.0000 -99.000000  47233.313          9  0.000e+00
    99.0000 181.916595   1968.622  721450249  0.000e+00
   -46.4831 -99.000000 -70064.104   11405740  0.000e+00
    -1.8454 -99.000000 -43270.474       2560  0.000e+00
     0.2620 -99.000000 -40139.738 3439919142  0.000e+00
    99.0000 -99.000000 -63894.914 3835166976  0.000e+00
    99.0000  -1.054532  49038.421 2969678129  0.000e+00
   -33.5288  24.001363  -9539.649 4294901868  0.000e+00
    46.5107  -0.902077 -62256.241   12714763  0.000e+00
   149.9778 -99.000000  82141.947 3835169280  0.000e+00
    14.0524  97.841889   9342.722 2399727834  0.000e+00
    99.0000 -99.000000 -33082.751 3723140057  0.000e+00
    -5.7124 -99.000000 -54005.230  505290270  0.000e+00
   -24.7908   8.556605  34123.098  505290270  0.000e+00
   -24.7908   8.556605  34123.098  505290270  0.000e+00
   -24.7908   8.556605  34123.098  505290270  0.000e+00
   -24.7908   8.556605  34123.098  505290270  0.000e+00
   -24.7908   8.556605  34123.098  505290270  0.000e+00
   -24.7908   8.556605  34123.098  505290270  0.000e+00
   -24.7908   8.556605  34123.098  505290270  0.000e+00
   -24.7908   8.556605  34123.098  505290270  0.000e+00
   -24.7908   8.556605  34123.098  505290270  0.000e+00
   -24.7908   8.556605  34123.098  505290270  0.000e+00
   -24.7908   8.556605  34123.098  505290270  0.000e+00
   -24.7908   8.556605  34123.098  505290270  0.000e+00
   -24.7908   8.556605  34123.098  505290270  0.000e+00
   -24.7908   8.556605  34123.098  505290270  0.000e+00
   -24.7908   8.556605  34123.098  505290270  0.000e+00
   -24.7908   8.556605  34123.098  505290270  0.000e+00
   -24.7908   8.556605  34123.098  505290270  0.000e+00
   -24.7908   8.556605  34123.098  505290270  0.000e+00
   -24.7908   8.556605  34123.098  505290270  0.000e+00
   -24.7908   8.556605  34123.098  505290270  0.000e+00
   -24.7908   8.556605  34123.098  505290270  0.000e+00
   -24.7908   8.556605  34123.098  505290270  0.000e+00
   -24.7908   8.556605  34123.098  505290270  0.000e+00
   -24.7908   8.556605  34123.098  505290270  0.000e+00
   -24.7908   8.556605  34123.098  505290270  0.000e+00
   -24.7908   8.556605  34123.098  505290270  0.000e+00
   -24.7908   8.556605  34123.098  505290270  0.000e+00
   -24.7908   8.556605  34123.098  505290270  0.000e+00
   -24.7908   8.556605  34123.098  505290270  0.000e+00
   -24.7908   8.556605  34123.098  505290270  0.000e+00
   -24.7908   8.556605  34123.098  505290270  0.000e+00
   -24.7908   8.556605  34123.098  505290270  0.000e+00
   -24.7908   8.556605  34123.098  505290270  0.000e+00
   -24.7908   8.556608  34126.225  202247217  0.000e+00
   -38.5993   0.285741 105657.937 4072681984  0.000e+00
   463.9147  45.486394  34084.429    5701874  0.000e+00
   -38.7009  86.914542  10442.766  570483395  0.000e+00
   -29.1785 -99.000000 -42385.088 1074832684  0.000e+00
    42.8863  -1.044407 -11469.807 2954002446  0.000e+00
    99.0000  -1.013730  79356.176 1118835286  0.000e+00
   -11.8771 -99.000000 -66514.698 1430391554  0.000e+00
   -48.8033  -1.072250 236175.339  615518802  0.000e+00
    -9.8679   0.221801 -66774.315 1972379136  0.000e+00
    99.0000 -99.000000 -51048.595  611684374  0.000e+00
   138.1640 183.407453 -28981.943  436213540  0.000e+00
   -48.8034  -1.049227  -5234.511  247611169  0.000e+00
   -43.1708 -99.000000 -67113.402 3527544322  0.000e+00
   -43.6314  48.573164 150581.789   34996914  0.000e+00
   -38.4799 -99.000000 104807.458  235017539  0.000e+00
     5.2593  45.921249 -58831.271   37044236  0.000e+00
    70.7937  -1.044583  -8747.023  671200835  0.000e+00
   495.1810 -99.000000 -39883.992  590778622  0.000e+00
    99.0000  32.306428  -7908.141   71046722  0.000e+00
    -9.3834  47.959443  18635.305  538412028  0.000e+00
   -28.0361 -99.000000  -9062.739 3774822208  0.000e+00
   -25.9486   2.543969 258670.783 3540139011  0.000e+00
   -39.3625   4.749617 -37215.710 1376660434  0.000e+00
    99.0000  47.948983  22851.224 2989564987  0.000e+00
    99.0000 -99.000000  10344.494  103560848  0.000e+00
   408.3181  20.423483 -13390.329 1073784108  0.000e+00
    42.8863  45.584453  -9366.832 3259765762  0.000e+00
   -15.9568  68.675075 463441.111  606851894  0.000e+00
    99.0000  -0.863211 -55068.757   35929024  0.000e+00
   -34.1939  50.138830 465929.789 1394050004  0.000e+00
   -28.0050  78.608537  89691.977  394525731  0.000e+00
    99.0000   1.129792 -68628.794   45236240  0.000e+00
   175.7195 -99.000000 -66800.156  268569602  0.000e+00
    99.0000  -0.999445 -62319.399 1127628810  0.000e+00
    36.0959 212.096382  15985.881 4213380674  0.000e+00
    -9.3834  48.243089  79960.950  682771988  0.000e+00
    33.5524   3.160919  15985.881 1547834626  0.000e+00
    52.3142  55.337483 -55419.964  598926098  0.000e+00
    33.5524   2.357293   5564.506  318943250  0.000e+00
    99.0000  41.804759  14652.907  264391698  0.000e+00
    30.0165  88.001305 125625.998 1001522212  0.000e+00
    99.0000 -99.000000   7867.964   35595051  0.000e+00
    99.0000  24.721921 267866.800 3803326464  0.000e+00
    99.0000  45.054756  50982.356   16590613  0.000e+00
   -39.2159  -0.778679 -16627.348   33686801  0.000e+00
    99.0000  -0.976246  34008.871 1108738615  0.000e+00
    99.0000  -0.780735  15598.508  894451877  0.000e+00
    99.0000  -1.027614 -68592.228   26382960  0.000e+00
    58.6776 -99.000000 -63027.560 2084605952  0.000e+00
    35.0445  45.319485 -63561.256 3960603161  0.000e+00
    99.0000  84.997891  -7759.136    5573678  0.000e+00
   -32.7584  22.032860  61737.415 1114636658  0.000e+00
    42.8821   0.462235  -9659.108  186679875  0.000e+00
   -45.8157 -99.000000 -70057.528     670796  0.000e+00
   -14.5583   7.183031  48024.966 1644297511  0.000e+00
    99.0000  -1.045490  -8171.887 1392968432  0.000e+00
    99.0000 -99.000000 -56363.392  151133123  0.000e+00
   -43.4847  -1.010601 183778.212 1448498774  0.000e+00
   -43.6967  87.231765 -10359.858 4246966850  0.000e+00
   -48.0143  -1.023650  -5522.167 1130496402  0.000e+00
    99.0000 -99.000000 -68744.053  735255612  0.000e+00
   -41.5471  39.657496  52318.135   33368034  0.000e+00
    99.0000  -1.031486 -42077.314  735300076  0.000e+00
   -14.6113 -99.000000 -62323.453 3009544701  0.000e+00
   -30.0745  16.110864  57966.823 2454848002  0.000e+00
   -48.3034  79.583992 -65843.918   26391394  0.000e+00
    38.3281 -99.000000 -11739.259  809628009  0.000e+00
   -38.6671 -99.000000 -21486.954   11626751  0.000e+00
    99.0000 -99.000000  66497.828 4294967295  0.000e+00
    99.0000 -99.000000  66497.828 4294967295  0.000e+00
    99.0000 -99.000000  66497.828 4294967295  0.000e+00
    99.0000 -99.000000  66497.828 4294967295  0.000e+00
    99.0000 -99.000000  66497.828 4294967295  0.000e+00
    99.0000 -99.000000  66497.828 4294967295  0.000e+00
    99.0000 -99.000000  66497.828 4294967295  0.000e+00
    99.0000 -99.000000  66497.828 4294967295  0.000e+00
