* Sea-Bird SBE37SMP-RS232  Data File:
* FileName = C:\CE25007_recovery_data\23830_cal_dip_data.hex
* Software version SeatermV2 2.8.0.119
* Temperature SN = 23830
* Conductivity SN = 23830
* System UpLoad Time = May 14 2025 13:28:54
* sample interval = 10 seconds
* <ApplicationData>
* <Seaterm232>
* <SoftwareVersion>2.8.0.119</SoftwareVersion>
* <BuildDate>07-Nov-2018</BuildDate>
* </Seaterm232>
* </ApplicationData>
* <InstrumentState>
* <HardwareData DeviceType='SBE37SMP-RS232' SerialNumber='03723830'>
*
*    <Manufacturer>Sea-Bird Scientific</Manufacturer>
*
*    <FirmwareVersion>6.2.0</FirmwareVersion>
*
*    <FirmwareDate>May  1 2019 13:15:54</FirmwareDate>
*
*    <CommandSetVersion>1.3</CommandSetVersion>
*
*    <PCBAssembly SerialNum='252745' AssemblyNum='41661E'/>
*
*    <PCBAssembly SerialNum='252165' AssemblyNum='41783S'/>
*
*    <PCBAssembly SerialNum='252185' AssemblyNum='41785C'/>
*
*    <MfgDate>24Nov2021</MfgDate>
*
*    <FirmwareLoader>SBE 37-232-V3 FirmwareLoader V 1.0</FirmwareLoader>
*
*    <InternalSensors>
*
*       <Sensor id='Temperature'>
*
*          <type>temperature-1</type>
*
*          <SerialNumber>03723830</SerialNumber>
*
*       </Sensor>
*
*       <Sensor id='Conductivity'>
*
*          <type>conductivity-1</type>
*
*          <SerialNumber>03723830</SerialNumber>
*
*       </Sensor>
*
*       <Sensor id='Pressure'>
*
*          <type>strain-0</type>
*
*          <SerialNumber>5831297</SerialNumber>
*
*       </Sensor>
*
*    </InternalSensors>
*
* </HardwareData>
* <StatusData DeviceType='SBE37SMP-RS232' SerialNumber='03723830'>
*
*    <DateTime>2025-05-14T13:26:29</DateTime>
*
*    <EventSummary numEvents='10'/>
*
*    <Power>
*
*       <vMain>13.46</vMain>
*
*       <vLith> 3.03</vLith>
*
*    </Power>
*
*    <MemorySummary>
*
*       <Bytes>745605</Bytes>
*
*       <Samples>49707</Samples>
*
*       <SamplesFree>509533</SamplesFree>
*
*       <SampleLength>15</SampleLength>
*
*    </MemorySummary>
*
*    <AutonomousSampling>no, stop command</AutonomousSampling>
*
* </StatusData>
* <ConfigurationData DeviceType='SBE37SMP-RS232' SerialNumber='03723830'>
*
*    <PressureInstalled>yes</PressureInstalled>
*
*    <SampleDataFormat>not set</SampleDataFormat>
*
*    <TemperatureUnits>Celsius</TemperatureUnits>
*
*    <ConductivityUnits>S/m</ConductivityUnits>
*
*    <PressureUnits>Decibar</PressureUnits>
*
*    <OutputTemperature>yes</OutputTemperature>
*
*    <OutputConductivity>yes</OutputConductivity>
*
*    <OutputPressure>yes</OutputPressure>
*
*    <OutputSalinity>yes</OutputSalinity>
*
*    <OutputSV>no</OutputSV>
*
*    <OutputSC>no</OutputSC>
*
*    <SCCoeff>0.0200</SCCoeff>
*
*    <TxSampleNumber>no</TxSampleNumber>
*
*    <SampleInterval>10</SampleInterval>
*
*    <TxRealTime>no</TxRealTime>
*
*    <SyncMode>no</SyncMode>
*
*    <MinCondFreq>3300.0</MinCondFreq>
*
*    <LegacyMode>no</LegacyMode>
*
*    <CompatibleMode>no</CompatibleMode>
*
* </ConfigurationData>
* <CalibrationCoefficients DeviceType='SBE37SMP-RS232' SerialNumber='03723830'>
*
*    <Calibration format='TEMP1' id='Temperature'>
*
*       <SerialNum>03723830</SerialNum>
*
*       <CalDate>26-Mar-24</CalDate>
*
*       <A0>-1.303331e-04</A0>
*
*       <A1>3.088954e-04</A1>
*
*       <A2>-4.466059e-06</A2>
*
*       <A3>2.022511e-07</A3>
*
*    </Calibration>
*
*    <Calibration format='WBCOND0' id='Conductivity'>
*
*       <SerialNum>03723830</SerialNum>
*
*       <CalDate>26-Mar-24</CalDate>
*
*       <G>-1.001709e+00</G>
*
*       <H>1.516825e-01</H>
*
*       <I>-5.345176e-04</I>
*
*       <J>6.408794e-05</J>
*
*       <PCOR>-9.570000e-08</PCOR>
*
*       <TCOR>3.250000e-06</TCOR>
*
*       <WBOTC>3.232359e-08</WBOTC>
*
*    </Calibration>
*
*    <Calibration format='STRAIN0' id='Pressure'>
*
*       <SerialNum>5831297</SerialNum>
*
*       <CalDate>20-Mar-24</CalDate>
*
*       <PA0>-3.584816e-01</PA0>
*
*       <PA1>3.103978e-02</PA1>
*
*       <PA2>2.366716e-09</PA2>
*
*       <PTCA0>5.242262e+05</PTCA0>
*
*       <PTCA1>-5.140268e+00</PTCA1>
*
*       <PTCA2>2.004376e-01</PTCA2>
*
*       <PTCB0>1.000473e+02</PTCB0>
*
*       <PTCB1>-9.978833e-04</PTCB1>
*
*       <PTCB2>0.000000e+00</PTCB2>
*
*       <PTEMPA0>-9.011909e+01</PTEMPA0>
*
*       <PTEMPA1>3.727386e-02</PTEMPA1>
*
*       <PTEMPA2>1.400503e-06</PTEMPA2>
*
*       <POFFSET>0.000000e+00</POFFSET>
*
*       <PRANGE>1.015300e+04</PRANGE>
*
*    </Calibration>
*
* </CalibrationCoefficients>
* <EventCounters DeviceType='SBE37SMP-RS232' SerialNumber='03723830'>
*
*    <EventSummary numEvents='10'/>
*
*    <Event type='PON reset' count='8'/>
*
*    <Event type='LoggingRestartPON' count='2'/>
*
* </EventCounters></InstrumentState>
# nquan = 5
# nvalues = 1338                                  
# units = specified
# name 0 = tv290C: Temperature [ITS-90, deg C]
# name 1 = cond0S/m: Conductivity [S/m]
# name 2 = prdM: Pressure, Strain Gauge [db]
# name 3 = timeK: Time, Instrument [seconds]
# name 4 = flag:  0.000e+00
# span 0 =     2.8046,    15.3511                 
# span 1 =  -0.000041,   4.087830                 
# span 2 =      0.376,   2415.399                 
# span 3 =  800452801,  800524661                 
# span 4 = 0.0000e+00, 0.0000e+00                 
# interval = seconds: 10
# start_time = May 13 2025 12:00:01 [Instrument's time stamp, first data scan]
# bad_flag = -9.990e-29
# <Sensors count="3" >
#   <sensor Channel="1" >
#     <!-- Count, Temperature -->
#     <TemperatureSensor SensorID="58" >
#       <SerialNumber>23830</SerialNumber>
#       <CalibrationDate>26-Mar-24</CalibrationDate>
#       <A0>-1.30333100e-004</A0>
#       <A1>3.08895400e-004</A1>
#       <A2>-4.46605900e-006</A2>
#       <A3>2.02251100e-007</A3>
#       <Slope>1.00000000</Slope>
#       <Offset>0.0000</Offset>
#     </TemperatureSensor>
#   </sensor>
#   <sensor Channel="2" >
#     <!-- Frequency 0, Conductivity -->
#     <ConductivitySensor SensorID="3" >
#       <SerialNumber>23830</SerialNumber>
#       <CalibrationDate>26-Mar-24</CalibrationDate>
#       <UseG_J>1</UseG_J>
#       <!-- Cell const and series R are applicable only for wide range sensors. -->
#       <SeriesR>0.0000</SeriesR>
#       <CellConst>2000.0000</CellConst>
#       <ConductivityType>1</ConductivityType>
#       <Coefficients equation="0" >
#         <A>0.00000000e+000</A>
#         <B>0.00000000e+000</B>
#         <C>0.00000000e+000</C>
#         <D>0.00000000e+000</D>
#         <M>0.0</M>
#         <CPcor>-9.57000000e-008</CPcor>
#       </Coefficients>
#       <Coefficients equation="1" >
#         <G>-1.00170900e+000</G>
#         <H>1.51682500e-001</H>
#         <I>-5.34517600e-004</I>
#         <J>6.40879400e-005</J>
#         <CPcor>-9.57000000e-008</CPcor>
#         <CTcor>3.2500e-006</CTcor>
#         <!-- WBOTC not applicable unless ConductivityType = 1. -->
#         <WBOTC>3.23235900e-008</WBOTC>
#       </Coefficients>
#       <Slope>1.00000000</Slope>
#       <Offset>0.00000</Offset>
#     </ConductivitySensor>
#   </sensor>
#   <sensor Channel="3" >
#     <!-- Count, Pressure, Strain Gauge -->
#     <PressureSensor SensorID="46" >
#       <SerialNumber>5831297</SerialNumber>
#       <CalibrationDate>20-Mar-24</CalibrationDate>
#       <PA0>-3.58481600e-001</PA0>
#       <PA1>3.10397800e-002</PA1>
#       <PA2>2.36671600e-009</PA2>
#       <PTEMPA0>-9.01190900e+001</PTEMPA0>
#       <PTEMPA1>3.72738600e-002</PTEMPA1>
#       <PTEMPA2>1.40050300e-006</PTEMPA2>
#       <PTCA0>5.24226200e+005</PTCA0>
#       <PTCA1>-5.14026800e+000</PTCA1>
#       <PTCA2>2.00437600e-001</PTCA2>
#       <PTCB0>1.00047300e+002</PTCB0>
#       <PTCB1>-9.97883300e-004</PTCB1>
#       <PTCB2>0.00000000e+000</PTCB2>
#       <Offset>0.000000</Offset>
#     </PressureSensor>
#   </sensor>
# </Sensors>
# datcnv_date = May 19 2025 07:29:44, 7.26.7.129 [datcnv_vars = 4]
# datcnv_in = C:\CE25007_recovery_data\23830_cal_dip_data.hex C:\CE25007_recovery_data\23830_cal_dip_data.xmlcon
# datcnv_skipover = 0
# file_type = ascii
*END*
    14.9965   0.000028      1.347  800452801  0.000e+00
    15.1829   0.000022      0.486  800511301  0.000e+00
    15.1894   0.000019      0.465  800511311  0.000e+00
    15.1953   0.000016      0.486  800511321  0.000e+00
    15.2001   0.000016      0.486  800511331  0.000e+00
    15.2027   0.000016      0.487  800511341  0.000e+00
    15.2036   0.000016      0.487  800511351  0.000e+00
    15.2052   0.000016      0.467  800511361  0.000e+00
    15.2047   0.000016      0.488  800511371  0.000e+00
    15.1942   0.000016      0.488  800511381  0.000e+00
    15.1891   0.000016      0.488  800511391  0.000e+00
    15.1854   0.000016      0.511  800511401  0.000e+00
    15.1948   0.000016      0.491  800511411  0.000e+00
    15.1993   0.000016      0.510  800511421  0.000e+00
    15.1885   0.000019      0.510  800511431  0.000e+00
    15.1857   0.000016      0.467  800511441  0.000e+00
    15.1868   0.000016      0.511  800511451  0.000e+00
    15.1890   0.000016      0.511  800511461  0.000e+00
    15.1907   0.000016      0.469  800511471  0.000e+00
    15.1915   0.000016      0.468  800511481  0.000e+00
    15.1919   0.000016      0.491  800511491  0.000e+00
    15.1963   0.000019      0.491  800511501  0.000e+00
    15.2010   0.000016      0.469  800511511  0.000e+00
    15.2010   0.000016      0.512  800511521  0.000e+00
    15.2040   0.000016      0.470  800511531  0.000e+00
    15.2042   0.000016      0.492  800511541  0.000e+00
    15.2040   0.000016      0.491  800511551  0.000e+00
    15.2058   0.000016      0.491  800511561  0.000e+00
    15.2096   0.000019      0.470  800511571  0.000e+00
    15.2106   0.000019      0.493  800511581  0.000e+00
    15.2050   0.000016      0.471  800511591  0.000e+00
    15.2051   0.000016      0.493  800511601  0.000e+00
    15.2025   0.000016      0.471  800511611  0.000e+00
    15.2058   0.000016      0.493  800511621  0.000e+00
    15.2052   0.000016      0.493  800511631  0.000e+00
    15.2111   0.000016      0.471  800511641  0.000e+00
    15.2122   0.000016      0.494  800511651  0.000e+00
    15.2020   0.000019      0.514  800511661  0.000e+00
    15.2071   0.000016      0.494  800511671  0.000e+00
    15.2108   0.000016      0.494  800511681  0.000e+00
    15.2081   0.000019      0.515  800511691  0.000e+00
    15.2099   0.000016      0.515  800511701  0.000e+00
    15.2120   0.000019      0.515  800511711  0.000e+00
    15.2129   0.000019      0.516  800511721  0.000e+00
    15.2148   0.000016      0.494  800511731  0.000e+00
    15.2166   0.000016      0.494  800511741  0.000e+00
    15.2121   0.000019      0.494  800511751  0.000e+00
    15.2021   0.000016      0.495  800511761  0.000e+00
    15.1995   0.000016      0.495  800511771  0.000e+00
    15.2007   0.000019      0.495  800511781  0.000e+00
    15.2077   0.000016      0.516  800511791  0.000e+00
    15.2109   0.000016      0.495  800511801  0.000e+00
    15.2052   0.000019      0.538  800511811  0.000e+00
    15.2006   0.000019      0.496  800511821  0.000e+00
    15.2069   0.000019      0.475  800511831  0.000e+00
    15.2159   0.000019      0.518  800511841  0.000e+00
    15.2212   0.000019      0.495  800511851  0.000e+00
    15.2113   0.000016      0.496  800511861  0.000e+00
    15.2209   0.000019      0.496  800511871  0.000e+00
    15.2222   0.000016      0.496  800511881  0.000e+00
    15.2201   0.000019      0.519  800511891  0.000e+00
    15.2189   0.000016      0.497  800511901  0.000e+00
    15.2207   0.000016      0.496  800511911  0.000e+00
    15.2181   0.000019      0.497  800511921  0.000e+00
    15.2223   0.000016      0.496  800511931  0.000e+00
    15.2177   0.000016      0.539  800511941  0.000e+00
    15.2217   0.000016      0.519  800511951  0.000e+00
    15.2232   0.000016      0.519  800511961  0.000e+00
    15.2277   0.000016      0.497  800511971  0.000e+00
    15.2318   0.000016      0.540  800511981  0.000e+00
    15.2313   0.000016      0.497  800511991  0.000e+00
    15.2227   0.000016      0.476  800512001  0.000e+00
    15.2165   0.000016      0.520  800512011  0.000e+00
    15.2223   0.000016      0.477  800512021  0.000e+00
    15.2342   0.000013      0.497  800512031  0.000e+00
    15.2449   0.000016      0.520  800512041  0.000e+00
    15.2534   0.000016      0.497  800512051  0.000e+00
    15.2588   0.000013      0.478  800512061  0.000e+00
    15.2675   0.000013      0.520  800512071  0.000e+00
    15.2734   0.000016      0.477  800512081  0.000e+00
    15.2751   0.000016      0.520  800512091  0.000e+00
    15.2839   0.000016      0.478  800512101  0.000e+00
    15.2936   0.000016      0.542  800512111  0.000e+00
    15.2982   0.000013      0.498  800512121  0.000e+00
    15.3040   0.000013      0.498  800512131  0.000e+00
    15.3108   0.000016      0.499  800512141  0.000e+00
    15.3067   0.000016      0.499  800512151  0.000e+00
    15.3127   0.000016      0.499  800512161  0.000e+00
    15.3189   0.000013      0.520  800512171  0.000e+00
    15.3248   0.000016      0.455  800512181  0.000e+00
    15.3271   0.000013      0.478  800512191  0.000e+00
    15.3227   0.000013      0.499  800512201  0.000e+00
    15.3177   0.000016      0.542  800512211  0.000e+00
    15.3266   0.000013      0.499  800512221  0.000e+00
    15.3378   0.000013      0.499  800512231  0.000e+00
    15.3452   0.000013      0.499  800512241  0.000e+00
    15.3484   0.000013      0.521  800512251  0.000e+00
    15.3504   0.000013      0.498  800512261  0.000e+00
    15.3400   0.000016      0.521  800512271  0.000e+00
    15.3475   0.000016      0.542  800512281  0.000e+00
    15.3499   0.000013      0.520  800512291  0.000e+00
    15.3511   0.000016      0.521  800512301  0.000e+00
    15.3509   0.000013      0.455  800512311  0.000e+00
    15.3491   0.000013      0.499  800512321  0.000e+00
    15.3411   0.000016      0.522  800512331  0.000e+00
    15.3352   0.000016      0.522  800512341  0.000e+00
    15.3248   0.000013      0.499  800512351  0.000e+00
    15.3281   0.000013      0.522  800512361  0.000e+00
    15.3288   0.000013      0.521  800512371  0.000e+00
    15.3343   0.000013      0.522  800512381  0.000e+00
    15.3248   0.000016      0.522  800512391  0.000e+00
    15.3229   0.000013      0.499  800512401  0.000e+00
    15.3185   0.000013      0.543  800512411  0.000e+00
    15.3077   0.000016      0.522  800512421  0.000e+00
    15.3127   0.000016      0.522  800512431  0.000e+00
    15.3153   0.000016      0.522  800512441  0.000e+00
    15.3141   0.000016      0.500  800512451  0.000e+00
    15.3089   0.000016      0.522  800512461  0.000e+00
    15.3064   0.000016      0.522  800512471  0.000e+00
    15.3113   0.000016      0.522  800512481  0.000e+00
    15.3027   0.000016      0.500  800512491  0.000e+00
    15.3027   0.000016      0.500  800512501  0.000e+00
    15.3002   0.000016      0.544  800512511  0.000e+00
    15.2932   0.000016      0.543  800512521  0.000e+00
    15.2950   0.000016      0.501  800512531  0.000e+00
    15.2910   0.000016      0.500  800512541  0.000e+00
    15.2902   0.000016      0.522  800512551  0.000e+00
    15.2870   0.000016      0.544  800512561  0.000e+00
    15.2469   0.000016      0.544  800512571  0.000e+00
    15.2179   0.000016      0.544  800512581  0.000e+00
    15.2127   0.000016      0.523  800512591  0.000e+00
    15.1976   0.000016      0.500  800512601  0.000e+00
    12.5744   0.000022      1.186  800512611  0.000e+00
    12.5169  -0.000041      1.487  800512621  0.000e+00
    12.4162   2.116406      4.162  800512631  0.000e+00
    12.3771   2.135620      7.394  800512641  0.000e+00
    12.3481   3.082471     10.907  800512651  0.000e+00
    12.3625   4.087830     11.014  800512661  0.000e+00
    12.3466   4.083894     11.143  800512671  0.000e+00
    12.3422   4.081029      8.319  800512681  0.000e+00
    12.3428   3.481301      4.467  800512691  0.000e+00
    12.3408   4.078796      1.793  800512701  0.000e+00
    12.3414   4.078343      1.815  800512711  0.000e+00
    12.3403   4.077629      2.117  800512721  0.000e+00
    12.3453   4.077891      4.816  800512731  0.000e+00
    12.3436   4.077886      9.419  800512741  0.000e+00
    12.3430   4.077524     14.515  800512751  0.000e+00
    12.2355   4.068492     19.312  800512761  0.000e+00
    12.1132   4.057256     23.937  800512771  0.000e+00
    11.9784   4.044610     28.712  800512781  0.000e+00
    11.6984   4.020266     35.650  800512791  0.000e+00
    11.3887   3.991369     42.375  800512801  0.000e+00
    11.3232   3.985863     49.356  800512811  0.000e+00
    11.3306   3.985675     56.252  800512821  0.000e+00
    11.3278   3.985222     62.955  800512831  0.000e+00
    11.3295   3.985762     69.810  800512841  0.000e+00
    11.3159   3.984507     77.092  800512851  0.000e+00
    11.3008   3.983559     85.060  800512861  0.000e+00
    11.3093   3.984765     93.371  800512871  0.000e+00
    11.2957   3.983837    101.919  800512881  0.000e+00
    11.2064   3.974687    107.425  800512891  0.000e+00
    11.1116   3.964956    115.330  800512901  0.000e+00
    11.1654   3.971041    125.978  800512911  0.000e+00
    11.1324   3.968140    136.798  800512921  0.000e+00
    11.1098   3.966278    147.512  800512931  0.000e+00
    11.0525   3.960936    156.941  800512941  0.000e+00
    10.9995   3.956174    166.606  800512951  0.000e+00
    10.9723   3.953642    176.057  800512961  0.000e+00
    10.9141   3.948240    186.002  800512971  0.000e+00
    10.8575   3.942881    196.055  800512981  0.000e+00
    10.8179   3.939366    206.409  800512991  0.000e+00
    10.7939   3.937428    216.549  800513001  0.000e+00
    10.7663   3.935193    226.904  800513011  0.000e+00
    10.7514   3.934087    236.745  800513021  0.000e+00
    10.6703   3.926209    247.144  800513031  0.000e+00
    10.5940   3.918992    257.394  800513041  0.000e+00
    10.4877   3.907739    267.687  800513051  0.000e+00
    10.2524   3.883809    277.874  800513061  0.000e+00
    10.2021   3.877827    287.461  800513071  0.000e+00
    10.2147   3.879283    297.693  800513081  0.000e+00
    10.0566   3.864270    307.925  800513091  0.000e+00
    10.0263   3.860944    318.200  800513101  0.000e+00
    10.2123   3.881225    328.305  800513111  0.000e+00
    10.1935   3.880603    338.388  800513121  0.000e+00
    10.2330   3.886070    348.516  800513131  0.000e+00
    10.1823   3.881957    359.073  800513141  0.000e+00
    10.0407   3.867892    369.137  800513151  0.000e+00
     9.9909   3.863457    379.223  800513161  0.000e+00
     9.9716   3.861521    389.397  800513171  0.000e+00
     9.9309   3.857794    399.399  800513181  0.000e+00
     9.8962   3.855060    409.402  800513191  0.000e+00
     9.8189   3.848399    419.276  800513201  0.000e+00
     9.7511   3.842526    429.281  800513211  0.000e+00
     9.7178   3.839389    439.307  800513221  0.000e+00
     9.6613   3.834091    449.334  800513231  0.000e+00
     9.6475   3.832555    459.469  800513241  0.000e+00
     9.6151   3.829642    469.519  800513251  0.000e+00
     9.5795   3.826488    479.506  800513261  0.000e+00
     9.5400   3.822881    489.535  800513271  0.000e+00
     9.4774   3.817252    499.908  800513281  0.000e+00
     9.4463   3.814276    509.725  800513291  0.000e+00
     9.3003   3.800351    519.928  800513301  0.000e+00
     9.1947   3.790311    530.284  800513311  0.000e+00
     9.1136   3.782310    540.080  800513321  0.000e+00
     9.0335   3.774822    550.221  800513331  0.000e+00
     8.9246   3.763732    560.471  800513341  0.000e+00
     8.8316   3.754944    570.549  800513351  0.000e+00
     8.7810   3.750197    580.929  800513361  0.000e+00
     8.6613   3.739839    590.880  800513371  0.000e+00
     8.5631   3.730584    600.444  800513381  0.000e+00
     8.5127   3.726577    610.417  800513391  0.000e+00
     8.4233   3.718869    620.498  800513401  0.000e+00
     8.3730   3.714273    630.795  800513411  0.000e+00
     8.3014   3.707658    640.920  800513421  0.000e+00
     8.2090   3.699299    650.618  800513431  0.000e+00
     8.1276   3.691501    660.594  800513441  0.000e+00
     8.0886   3.688032    670.721  800513451  0.000e+00
     7.9899   3.678717    680.828  800513461  0.000e+00
     7.5928   3.639980    690.850  800513471  0.000e+00
     7.6013   3.640134    700.721  800513481  0.000e+00
     7.4577   3.625866    710.852  800513491  0.000e+00
     7.4046   3.619425    720.833  800513501  0.000e+00
     7.2626   3.605843    731.007  800513511  0.000e+00
     7.1783   3.598047    741.054  800513521  0.000e+00
     7.0840   3.589690    751.077  800513531  0.000e+00
     7.0008   3.582129    761.512  800513541  0.000e+00
     7.0000   3.581833    771.882  800513551  0.000e+00
     6.8960   3.572340    781.975  800513561  0.000e+00
     6.8107   3.564371    792.176  800513571  0.000e+00
     6.7584   3.560014    802.333  800513581  0.000e+00
     6.7604   3.560856    812.986  800513591  0.000e+00
     6.7408   3.559378    823.035  800513601  0.000e+00
     6.6541   3.551992    833.283  800513611  0.000e+00
     6.5182   3.538582    843.443  800513621  0.000e+00
     6.4519   3.532767    853.347  800513631  0.000e+00
     6.4008   3.528374    863.893  800513641  0.000e+00
     6.3721   3.525089    873.561  800513651  0.000e+00
     6.2903   3.518280    883.422  800513661  0.000e+00
     6.2103   3.510605    893.369  800513671  0.000e+00
     6.0903   3.499864    903.083  800513681  0.000e+00
     6.0533   3.496164    913.074  800513691  0.000e+00
     5.9935   3.490325    922.810  800513701  0.000e+00
     5.9466   3.485985    932.976  800513711  0.000e+00
     5.8843   3.480185    942.752  800513721  0.000e+00
     5.8415   3.476248    952.384  800513731  0.000e+00
     5.7815   3.470558    962.271  800513741  0.000e+00
     5.7367   3.466465    972.159  800513751  0.000e+00
     5.6833   3.461809    982.284  800513761  0.000e+00
     5.6227   3.456006    991.895  800513771  0.000e+00
     5.5420   3.448885   1001.720  800513781  0.000e+00
     5.4737   3.442333   1011.914  800513791  0.000e+00
     5.4095   3.436018   1021.676  800513801  0.000e+00
     5.3535   3.430923   1031.828  800513811  0.000e+00
     5.2875   3.424494   1041.826  800513821  0.000e+00
     5.2458   3.420979   1051.271  800513831  0.000e+00
     5.2177   3.398223   1061.725  800513841  0.000e+00
     5.1485   3.412171   1071.923  800513851  0.000e+00
     5.0655   3.404435   1081.904  800513861  0.000e+00
     4.9874   3.397770   1091.928  800513871  0.000e+00
     4.9572   3.394496   1101.935  800513881  0.000e+00
     4.9474   3.393734   1112.090  800513891  0.000e+00
     4.9110   3.390506   1122.702  800513901  0.000e+00
     4.8297   3.382527   1132.948  800513911  0.000e+00
     4.7037   3.371052   1143.234  800513921  0.000e+00
     4.6766   3.368322   1153.522  800513931  0.000e+00
     4.6289   3.363654   1164.050  800513941  0.000e+00
     4.6346   3.364299   1174.210  800513951  0.000e+00
     4.6225   3.363369   1184.391  800513961  0.000e+00
     4.5759   3.359276   1194.687  800513971  0.000e+00
     4.5866   3.360276   1204.654  800513981  0.000e+00
     4.5874   3.360971   1214.557  800513991  0.000e+00
     4.5612   3.359336   1225.047  800514001  0.000e+00
     4.5033   3.354312   1235.170  800514011  0.000e+00
     4.4744   3.351745   1245.226  800514021  0.000e+00
     4.4558   3.350232   1255.307  800514031  0.000e+00
     4.4784   3.352640   1265.220  800514041  0.000e+00
     4.4233   3.348064   1275.663  800514051  0.000e+00
     4.4142   3.347363   1285.469  800514061  0.000e+00
     4.4108   3.347620   1295.701  800514071  0.000e+00
     4.4038   3.347268   1305.829  800514081  0.000e+00
     4.3835   3.345902   1315.893  800514091  0.000e+00
     4.3328   3.341747   1325.716  800514101  0.000e+00
     4.2584   3.335277   1335.782  800514111  0.000e+00
     4.1562   3.325869   1346.002  800514121  0.000e+00
     4.1392   3.324108   1356.047  800514131  0.000e+00
     4.1204   3.322480   1365.895  800514141  0.000e+00
     4.1863   3.328782   1375.836  800514151  0.000e+00
     4.1734   3.328412   1385.966  800514161  0.000e+00
     4.1529   3.316193   1396.230  800514171  0.000e+00
     4.1316   3.325256   1406.041  800514181  0.000e+00
     4.0979   3.322635   1415.567  800514191  0.000e+00
     4.0582   3.319168   1426.118  800514201  0.000e+00
     4.0486   3.318463   1436.103  800514211  0.000e+00
     4.0391   3.317872   1445.985  800514221  0.000e+00
     4.0225   3.316681   1456.119  800514231  0.000e+00
     4.0191   3.316628   1465.872  800514241  0.000e+00
     4.0266   3.317844   1475.814  800514251  0.000e+00
     3.9921   3.315193   1485.547  800514261  0.000e+00
     3.9770   3.314060   1495.749  800514271  0.000e+00
     3.9522   3.312067   1505.396  800514281  0.000e+00
     3.9441   3.311786   1515.517  800514291  0.000e+00
     3.9343   3.302227   1525.509  800514301  0.000e+00
     3.9247   3.310586   1535.245  800514311  0.000e+00
     3.9172   3.310242   1545.108  800514321  0.000e+00
     3.9090   3.309861   1555.296  800514331  0.000e+00
     3.8938   3.308948   1565.485  800514341  0.000e+00
     3.8849   3.308567   1575.202  800514351  0.000e+00
     3.8707   3.307711   1585.328  800514361  0.000e+00
     3.8462   3.305960   1595.778  800514371  0.000e+00
     3.8369   3.305320   1606.342  800514381  0.000e+00
     3.8313   3.305084   1616.725  800514391  0.000e+00
     3.8135   3.304021   1626.944  800514401  0.000e+00
     3.8058   3.303481   1637.030  800514411  0.000e+00
     3.7848   3.302192   1647.770  800514421  0.000e+00
     3.7856   3.302447   1658.311  800514431  0.000e+00
     3.7826   3.302602   1668.663  800514441  0.000e+00
     3.7633   3.301583   1678.816  800514451  0.000e+00
     3.7574   3.301271   1689.256  800514461  0.000e+00
     3.7574   3.301621   1699.324  800514471  0.000e+00
     3.7485   3.301404   1710.090  800514481  0.000e+00
     3.7196   3.299188   1720.377  800514491  0.000e+00
     3.7115   3.298869   1730.750  800514501  0.000e+00
     3.7104   3.299169   1740.826  800514511  0.000e+00
     3.7074   3.299349   1751.287  800514521  0.000e+00
     3.7048   3.299560   1761.451  800514531  0.000e+00
     3.7101   3.300484   1771.285  800514541  0.000e+00
     3.6979   3.299989   1781.667  800514551  0.000e+00
     3.6879   3.299557   1791.767  800514561  0.000e+00
     3.6829   3.299579   1801.387  800514571  0.000e+00
     3.6797   3.299677   1811.268  800514581  0.000e+00
     3.6792   3.300046   1821.240  800514591  0.000e+00
     3.6679   3.299570   1831.599  800514601  0.000e+00
     3.6655   3.299655   1841.508  800514611  0.000e+00
     3.6666   3.300043   1851.218  800514621  0.000e+00
     3.6495   3.299050   1861.154  800514631  0.000e+00
     3.6384   3.298637   1871.494  800514641  0.000e+00
     3.6324   3.298458   1881.427  800514651  0.000e+00
     3.6226   3.298259   1891.231  800514661  0.000e+00
     3.5991   3.296692   1901.356  800514671  0.000e+00
     3.5764   3.295170   1911.422  800514681  0.000e+00
     3.5623   3.294279   1921.553  800514691  0.000e+00
     3.5518   3.293627   1931.507  800514701  0.000e+00
     3.5375   3.292792   1941.769  800514711  0.000e+00
     3.5268   3.292260   1951.794  800514721  0.000e+00
     3.5107   3.291211   1961.750  800514731  0.000e+00
     3.5107   3.291548   1972.232  800514741  0.000e+00
     3.4940   3.290701   1982.450  800514751  0.000e+00
     3.4688   3.285225   1992.521  800514761  0.000e+00
     3.4609   3.288559   2002.762  800514771  0.000e+00
     3.4426   3.287335   2013.225  800514781  0.000e+00
     3.4324   3.286916   2023.428  800514791  0.000e+00
     3.4204   3.286189   2033.307  800514801  0.000e+00
     3.4065   3.285424   2043.533  800514811  0.000e+00
     3.3952   3.284830   2053.647  800514821  0.000e+00
     3.3913   3.284751   2063.311  800514831  0.000e+00
     3.3840   3.284534   2073.626  800514841  0.000e+00
     3.3633   3.283322   2083.591  800514851  0.000e+00
     3.3456   3.282212   2093.795  800514861  0.000e+00
     3.3174   3.280245   2103.673  800514871  0.000e+00
     3.2978   3.279053   2114.039  800514881  0.000e+00
     3.2791   3.277849   2123.985  800514891  0.000e+00
     3.2524   3.276028   2133.827  800514901  0.000e+00
     3.2293   3.274327   2143.778  800514911  0.000e+00
     3.2015   3.272369   2153.899  800514921  0.000e+00
     3.1789   3.270770   2164.156  800514931  0.000e+00
     3.1650   3.269824   2174.413  800514941  0.000e+00
     3.1398   3.268181   2184.389  800514951  0.000e+00
     3.1180   3.266520   2194.252  800514961  0.000e+00
     3.0871   3.264375   2204.316  800514971  0.000e+00
     3.0666   3.262966   2214.441  800514981  0.000e+00
     3.0403   3.260998   2224.572  800514991  0.000e+00
     3.0216   3.259720   2234.638  800515001  0.000e+00
     2.9918   3.257552   2244.700  800515011  0.000e+00
     2.9769   3.256514   2254.941  800515021  0.000e+00
     2.9522   3.254761   2264.966  800515031  0.000e+00
     2.9272   3.252926   2274.721  800515041  0.000e+00
     2.9128   3.252027   2284.943  800515051  0.000e+00
     2.9060   3.251572   2295.366  800515061  0.000e+00
     2.8882   3.250346   2305.193  800515071  0.000e+00
     2.8803   3.249923   2315.025  800515081  0.000e+00
     2.8805   3.250171   2325.093  800515091  0.000e+00
     2.8733   3.249905   2335.118  800515101  0.000e+00
     2.8736   3.249830   2338.386  800515111  0.000e+00
     2.8656   3.249394   2345.083  800515121  0.000e+00
     2.8576   3.249020   2353.325  800515131  0.000e+00
     2.8488   3.248565   2361.398  800515141  0.000e+00
     2.8478   3.248712   2369.188  800515151  0.000e+00
     2.8443   3.248677   2377.262  800515161  0.000e+00
     2.8409   3.248654   2385.854  800515171  0.000e+00
     2.8393   3.248839   2393.798  800515181  0.000e+00
     2.8337   3.248445   2397.150  800515191  0.000e+00
     2.8226   3.247682   2401.956  800515201  0.000e+00
     2.8116   3.246881   2407.136  800515211  0.000e+00
     2.8101   3.246832   2411.790  800515221  0.000e+00
     2.8101   3.246814   2414.228  800515231  0.000e+00
     2.8072   3.246576   2414.250  800515241  0.000e+00
     2.8046   3.246338   2414.724  800515251  0.000e+00
     2.8057   3.246351   2414.637  800515261  0.000e+00
     2.8074   3.246470   2414.354  800515271  0.000e+00
     2.8073   3.246420   2414.306  800515281  0.000e+00
     2.8079   3.246482   2414.502  800515291  0.000e+00
     2.8083   3.246482   2414.458  800515301  0.000e+00
     2.8078   3.246457   2414.475  800515311  0.000e+00
     2.8070   3.246413   2414.519  800515321  0.000e+00
     2.8085   3.246482   2414.214  800515331  0.000e+00
     2.8095   3.246558   2414.431  800515341  0.000e+00
     2.8091   3.246583   2414.671  800515351  0.000e+00
     2.8093   3.246576   2414.666  800515361  0.000e+00
     2.8094   3.246601   2414.623  800515371  0.000e+00
     2.8093   3.246551   2414.340  800515381  0.000e+00
     2.8091   3.246576   2414.601  800515391  0.000e+00
     2.8096   3.246595   2414.644  800515401  0.000e+00
     2.8089   3.246533   2414.531  800515411  0.000e+00
     2.8094   3.246583   2414.618  800515421  0.000e+00
     2.8090   3.246558   2414.906  800515431  0.000e+00
     2.8090   3.246558   2414.700  800515441  0.000e+00
     2.8089   3.246558   2414.395  800515451  0.000e+00
     2.8089   3.246564   2414.613  800515461  0.000e+00
     2.8092   3.246545   2414.395  800515471  0.000e+00
     2.8090   3.246551   2414.282  800515481  0.000e+00
     2.8094   3.246583   2414.308  800515491  0.000e+00
     2.8093   3.246589   2414.831  800515501  0.000e+00
     2.8092   3.246595   2415.000  800515511  0.000e+00
     2.8092   3.246583   2414.782  800515521  0.000e+00
     2.8093   3.246576   2414.482  800515531  0.000e+00
     2.8091   3.246570   2414.195  800515541  0.000e+00
     2.8090   3.246558   2414.391  800515551  0.000e+00
     2.8090   3.246539   2414.657  800515561  0.000e+00
     2.8085   3.246539   2414.913  800515571  0.000e+00
     2.8085   3.246482   2414.086  800515581  0.000e+00
     2.8080   3.246445   2414.216  800515591  0.000e+00
     2.8080   3.246476   2414.869  800515601  0.000e+00
     2.8082   3.246464   2414.369  800515611  0.000e+00
     2.8082   3.246470   2414.233  800515621  0.000e+00
     2.8084   3.246501   2414.891  800515631  0.000e+00
     2.8083   3.246520   2415.152  800515641  0.000e+00
     2.8085   3.246507   2414.560  800515651  0.000e+00
     2.8088   3.246514   2414.364  800515661  0.000e+00
     2.8093   3.246577   2414.947  800515671  0.000e+00
     2.8090   3.246570   2414.799  800515681  0.000e+00
     2.8087   3.246545   2414.903  800515691  0.000e+00
     2.8089   3.246520   2414.212  800515701  0.000e+00
     2.8091   3.246570   2414.686  800515711  0.000e+00
     2.8095   3.246608   2414.886  800515721  0.000e+00
     2.8093   3.246570   2414.664  800515731  0.000e+00
     2.8092   3.246583   2415.012  800515741  0.000e+00
     2.8090   3.246539   2414.886  800515751  0.000e+00
     2.8089   3.246558   2414.577  800515761  0.000e+00
     2.8092   3.246520   2414.250  800515771  0.000e+00
     2.8086   3.246520   2414.751  800515781  0.000e+00
     2.8086   3.246520   2414.886  800515791  0.000e+00
     2.8083   3.246514   2415.039  800515801  0.000e+00
     2.8084   3.246501   2414.577  800515811  0.000e+00
     2.8075   3.246426   2414.233  800515821  0.000e+00
     2.8076   3.246432   2414.615  800515831  0.000e+00
     2.8070   3.246382   2414.882  800515841  0.000e+00
     2.8070   3.246370   2414.490  800515851  0.000e+00
     2.8082   3.246445   2414.620  800515861  0.000e+00
     2.8079   3.246476   2415.121  800515871  0.000e+00
     2.8073   3.246413   2414.599  800515881  0.000e+00
     2.8074   3.246395   2414.686  800515891  0.000e+00
     2.8076   3.246407   2414.669  800515901  0.000e+00
     2.8078   3.246439   2414.751  800515911  0.000e+00
     2.8079   3.246445   2414.642  800515921  0.000e+00
     2.8080   3.246445   2414.707  800515931  0.000e+00
     2.8077   3.246445   2415.143  800515941  0.000e+00
     2.8074   3.246420   2414.773  800515951  0.000e+00
     2.8078   3.246458   2415.181  800515961  0.000e+00
     2.8085   3.246489   2414.659  800515971  0.000e+00
     2.8085   3.246489   2414.398  800515981  0.000e+00
     2.8080   3.246476   2414.947  800515991  0.000e+00
     2.8091   3.246551   2414.838  800516001  0.000e+00
     2.8093   3.246583   2414.877  800516011  0.000e+00
     2.8093   3.246589   2414.947  800516021  0.000e+00
     2.8094   3.246564   2414.441  800516031  0.000e+00
     2.8093   3.246583   2414.964  800516041  0.000e+00
     2.8095   3.246564   2414.250  800516051  0.000e+00
     2.8092   3.246558   2414.729  800516061  0.000e+00
     2.8087   3.246564   2415.399  800516071  0.000e+00
     2.8089   3.246526   2414.398  800516081  0.000e+00
     2.8092   3.246539   2414.507  800516091  0.000e+00
     2.8091   3.246551   2414.572  800516101  0.000e+00
     2.8094   3.246570   2414.790  800516111  0.000e+00
     2.8090   3.246583   2415.382  800516121  0.000e+00
     2.8092   3.246539   2414.202  800516131  0.000e+00
     2.8093   3.246558   2414.811  800516141  0.000e+00
     2.8091   3.246551   2414.567  800516151  0.000e+00
     2.8094   3.246589   2414.898  800516161  0.000e+00
     2.8094   3.246583   2414.659  800516171  0.000e+00
     2.8097   3.246608   2414.620  800516181  0.000e+00
     2.8102   3.246506   2411.285  800516191  0.000e+00
     2.8171   3.246723   2404.058  800516201  0.000e+00
     2.8337   3.247768   2397.006  800516211  0.000e+00
     2.8413   3.248148   2389.083  800516221  0.000e+00
     2.8422   3.248045   2381.091  800516231  0.000e+00
     2.8447   3.247980   2373.174  800516241  0.000e+00
     2.8451   3.247770   2365.737  800516251  0.000e+00
     2.8457   3.247580   2358.921  800516261  0.000e+00
     2.8446   3.247530   2358.877  800516271  0.000e+00
     2.8457   3.247656   2359.334  800516281  0.000e+00
     2.8455   3.247693   2358.877  800516291  0.000e+00
     2.8459   3.247706   2358.660  800516301  0.000e+00
     2.8451   3.247700   2359.399  800516311  0.000e+00
     2.8456   3.247718   2359.073  800516321  0.000e+00
     2.8458   3.247737   2358.877  800516331  0.000e+00
     2.8461   3.247781   2358.708  800516341  0.000e+00
     2.8460   3.247743   2358.643  800516351  0.000e+00
     2.8461   3.247794   2359.508  800516361  0.000e+00
     2.8465   3.247812   2359.008  800516371  0.000e+00
     2.8464   3.247667   2355.461  800516381  0.000e+00
     2.8499   3.247608   2347.584  800516391  0.000e+00
     2.8573   3.247881   2340.121  800516401  0.000e+00
     2.8604   3.247942   2334.899  800516411  0.000e+00
     2.8599   3.247961   2334.921  800516421  0.000e+00
     2.8656   3.248173   2329.069  800516431  0.000e+00
     2.8671   3.247988   2321.885  800516441  0.000e+00
     2.8738   3.248281   2314.189  800516451  0.000e+00
     2.8743   3.248090   2306.558  800516461  0.000e+00
     2.8788   3.248088   2298.119  800516471  0.000e+00
     2.8976   3.249220   2290.371  800516481  0.000e+00
     2.9021   3.249468   2282.872  800516491  0.000e+00
     2.9097   3.249754   2274.951  800516501  0.000e+00
     2.9264   3.250899   2267.170  800516511  0.000e+00
     2.9618   3.253235   2259.033  800516521  0.000e+00
     2.9933   3.255597   2250.900  800516531  0.000e+00
     2.9949   3.255858   2243.442  800516541  0.000e+00
     3.0078   3.256414   2235.207  800516551  0.000e+00
     3.0255   3.257860   2227.489  800516561  0.000e+00
     3.0312   3.258159   2219.679  800516571  0.000e+00
     3.0400   3.258734   2211.940  800516581  0.000e+00
     3.0824   3.261813   2204.093  800516591  0.000e+00
     3.0930   3.262602   2196.442  800516601  0.000e+00
     3.1155   3.264037   2188.639  800516611  0.000e+00
     3.1245   3.264845   2181.515  800516621  0.000e+00
     3.1421   3.266099   2174.517  800516631  0.000e+00
     3.1433   3.266153   2167.802  800516641  0.000e+00
     3.1520   3.266647   2160.587  800516651  0.000e+00
     3.1661   3.267336   2152.769  800516661  0.000e+00
     3.1827   3.268596   2145.642  800516671  0.000e+00
     3.1958   3.269499   2138.429  800516681  0.000e+00
     3.2269   3.271563   2130.477  800516691  0.000e+00
     3.2166   3.271249   2129.560  800516701  0.000e+00
     3.2180   3.271368   2129.152  800516711  0.000e+00
     3.2222   3.271764   2129.347  800516721  0.000e+00
     3.2234   3.271959   2129.678  800516731  0.000e+00
     3.2268   3.272292   2129.282  800516741  0.000e+00
     3.2280   3.272450   2129.569  800516751  0.000e+00
     3.2268   3.272406   2129.830  800516761  0.000e+00
     3.2292   3.272556   2129.395  800516771  0.000e+00
     3.2297   3.272670   2129.895  800516781  0.000e+00
     3.2300   3.272701   2129.634  800516791  0.000e+00
     3.2306   3.272732   2129.400  800516801  0.000e+00
     3.2300   3.272732   2129.569  800516811  0.000e+00
     3.2299   3.272726   2129.578  800516821  0.000e+00
     3.2379   3.273133   2125.793  800516831  0.000e+00
     3.2599   3.274338   2117.956  800516841  0.000e+00
     3.2717   3.275203   2110.283  800516851  0.000e+00
     3.2765   3.275377   2102.771  800516861  0.000e+00
     3.2844   3.275745   2094.626  800516871  0.000e+00
     3.3008   3.276780   2086.959  800516881  0.000e+00
     3.3271   3.278564   2079.162  800516891  0.000e+00
     3.3514   3.280235   2071.170  800516901  0.000e+00
     3.3577   3.280704   2063.656  800516911  0.000e+00
     3.3723   3.281476   2056.055  800516921  0.000e+00
     3.3864   3.282537   2048.065  800516931  0.000e+00
     3.3942   3.283013   2040.535  800516941  0.000e+00
     3.4065   3.283683   2032.632  800516951  0.000e+00
     3.4080   3.283865   2028.355  800516961  0.000e+00
     3.4106   3.284179   2028.507  800516971  0.000e+00
     3.4137   3.284526   2028.637  800516981  0.000e+00
     3.4146   3.284702   2028.876  800516991  0.000e+00
     3.4143   3.284721   2028.598  800517001  0.000e+00
     3.4145   3.284746   2028.316  800517011  0.000e+00
     3.4145   3.284784   2028.750  800517021  0.000e+00
     3.4144   3.284796   2028.620  800517031  0.000e+00
     3.4138   3.284796   2028.842  800517041  0.000e+00
     3.4146   3.284834   2028.603  800517051  0.000e+00
     3.4140   3.284771   2028.277  800517061  0.000e+00
     3.4138   3.284765   2028.516  800517071  0.000e+00
     3.4131   3.284721   2028.776  800517081  0.000e+00
     3.4126   3.284683   2028.559  800517091  0.000e+00
     3.4133   3.284721   2027.847  800517101  0.000e+00
     3.4136   3.284777   2028.890  800517111  0.000e+00
     3.4135   3.284727   2028.412  800517121  0.000e+00
     3.4133   3.284721   2028.651  800517131  0.000e+00
     3.4136   3.284752   2028.482  800517141  0.000e+00
     3.4135   3.284740   2028.586  800517151  0.000e+00
     3.4112   3.284582   2028.959  800517161  0.000e+00
     3.4109   3.284494   2028.065  800517171  0.000e+00
     3.4111   3.284545   2028.911  800517181  0.000e+00
     3.4110   3.284563   2028.829  800517191  0.000e+00
     3.4111   3.284526   2028.768  800517201  0.000e+00
     3.4109   3.284494   2028.178  800517211  0.000e+00
     3.4110   3.284513   2028.221  800517221  0.000e+00
     3.4116   3.284589   2028.703  800517231  0.000e+00
     3.4115   3.284563   2028.894  800517241  0.000e+00
     3.4112   3.284526   2028.312  800517251  0.000e+00
     3.4119   3.284551   2028.004  800517261  0.000e+00
     3.4117   3.284589   2028.833  800517271  0.000e+00
     3.4112   3.284545   2028.938  800517281  0.000e+00
     3.4094   3.284393   2028.703  800517291  0.000e+00
     3.4065   3.284198   2028.686  800517301  0.000e+00
     3.4061   3.284116   2028.530  800517311  0.000e+00
     3.4057   3.284091   2028.664  800517321  0.000e+00
     3.4062   3.284136   2029.164  800517331  0.000e+00
     3.4076   3.284211   2028.595  800517341  0.000e+00
     3.4094   3.284356   2028.160  800517351  0.000e+00
     3.4097   3.284349   2028.334  800517361  0.000e+00
     3.4096   3.284381   2028.556  800517371  0.000e+00
     3.4097   3.284400   2028.708  800517381  0.000e+00
     3.4097   3.284393   2028.573  800517391  0.000e+00
     3.4095   3.284406   2028.703  800517401  0.000e+00
     3.4100   3.284380   2027.553  800517411  0.000e+00
     3.4157   3.284479   2019.932  800517421  0.000e+00
     3.4273   3.285112   2012.117  800517431  0.000e+00
     3.4447   3.286016   2004.133  800517441  0.000e+00
     3.4501   3.286290   1996.167  800517451  0.000e+00
     3.4533   3.286338   1988.657  800517461  0.000e+00
     3.4620   3.286701   1980.757  800517471  0.000e+00
     3.4735   3.287284   1972.510  800517481  0.000e+00
     3.4799   3.287603   1964.745  800517491  0.000e+00
     3.4887   3.288041   1956.820  800517501  0.000e+00
     3.5039   3.288970   1948.639  800517511  0.000e+00
     3.5207   3.290083   1940.937  800517521  0.000e+00
     3.5451   3.291749   1933.256  800517531  0.000e+00
     3.5729   3.293946   1925.467  800517541  0.000e+00
     3.5623   3.293423   1925.380  800517551  0.000e+00
     3.5750   3.294500   1924.621  800517561  0.000e+00
     3.5762   3.294809   1925.359  800517571  0.000e+00
     3.5766   3.294910   1924.990  800517581  0.000e+00
     3.5760   3.294979   1925.602  800517591  0.000e+00
     3.5768   3.295087   1925.576  800517601  0.000e+00
     3.5766   3.295080   1925.081  800517611  0.000e+00
     3.5773   3.295112   1924.864  800517621  0.000e+00
     3.5776   3.295181   1925.645  800517631  0.000e+00
     3.5775   3.295162   1924.890  800517641  0.000e+00
     3.5778   3.295187   1925.211  800517651  0.000e+00
     3.5782   3.295244   1925.450  800517661  0.000e+00
     3.5786   3.295250   1924.890  800517671  0.000e+00
     3.5782   3.295161   1923.046  800517681  0.000e+00
     3.5792   3.294800   1915.150  800517691  0.000e+00
     3.5846   3.294772   1907.275  800517701  0.000e+00
     3.5983   3.295450   1898.919  800517711  0.000e+00
     3.6285   3.297597   1890.855  800517721  0.000e+00
     3.6340   3.297764   1882.769  800517731  0.000e+00
     3.6368   3.297718   1874.805  800517741  0.000e+00
     3.6409   3.297538   1866.499  800517751  0.000e+00
     3.6477   3.297939   1858.575  800517761  0.000e+00
     3.6642   3.298857   1850.760  800517771  0.000e+00
     3.6716   3.299233   1843.735  800517781  0.000e+00
     3.6778   3.299629   1836.840  800517791  0.000e+00
     3.6815   3.299752   1829.750  800517801  0.000e+00
     3.6817   3.299631   1824.265  800517811  0.000e+00
     3.6803   3.299599   1824.395  800517821  0.000e+00
     3.6809   3.299713   1824.156  800517831  0.000e+00
     3.6813   3.299807   1824.443  800517841  0.000e+00
     3.6825   3.299915   1824.243  800517851  0.000e+00
     3.6833   3.299990   1824.269  800517861  0.000e+00
     3.6834   3.300041   1824.378  800517871  0.000e+00
     3.6833   3.300034   1824.356  800517881  0.000e+00
     3.6829   3.300022   1824.226  800517891  0.000e+00
     3.6831   3.300060   1824.963  800517901  0.000e+00
     3.6825   3.299952   1824.291  800517911  0.000e+00
     3.6826   3.300009   1824.703  800517921  0.000e+00
     3.6823   3.299997   1824.573  800517931  0.000e+00
     3.6824   3.300009   1824.854  800517941  0.000e+00
     3.6825   3.299984   1824.317  800517951  0.000e+00
     3.6825   3.299990   1824.165  800517961  0.000e+00
     3.6828   3.300003   1824.620  800517971  0.000e+00
     3.6826   3.300016   1824.768  800517981  0.000e+00
     3.6822   3.299997   1824.443  800517991  0.000e+00
     3.6825   3.299984   1824.338  800518001  0.000e+00
     3.6828   3.300016   1824.837  800518011  0.000e+00
     3.6822   3.299990   1824.360  800518021  0.000e+00
     3.6825   3.299990   1824.360  800518031  0.000e+00
     3.6820   3.299991   1824.950  800518041  0.000e+00
     3.6822   3.299953   1824.620  800518051  0.000e+00
     3.6816   3.299902   1824.534  800518061  0.000e+00
     3.6817   3.299896   1824.690  800518071  0.000e+00
     3.6814   3.299927   1824.924  800518081  0.000e+00
     3.6816   3.299902   1824.447  800518091  0.000e+00
     3.6814   3.299896   1824.560  800518101  0.000e+00
     3.6813   3.299877   1824.425  800518111  0.000e+00
     3.6814   3.299890   1824.837  800518121  0.000e+00
     3.6812   3.299858   1824.321  800518131  0.000e+00
     3.6813   3.299864   1824.685  800518141  0.000e+00
     3.6810   3.299877   1824.928  800518151  0.000e+00
     3.6811   3.299871   1824.885  800518161  0.000e+00
     3.6811   3.299852   1824.278  800518171  0.000e+00
     3.6811   3.299883   1824.863  800518181  0.000e+00
     3.6812   3.299877   1824.625  800518191  0.000e+00
     3.6813   3.299877   1824.521  800518201  0.000e+00
     3.6814   3.299877   1824.820  800518211  0.000e+00
     3.6811   3.299858   1824.581  800518221  0.000e+00
     3.6809   3.299858   1824.776  800518231  0.000e+00
     3.6807   3.299839   1824.841  800518241  0.000e+00
     3.6807   3.299833   1824.690  800518251  0.000e+00
     3.6802   3.299807   1824.429  800518261  0.000e+00
     3.6804   3.299801   1824.798  800518271  0.000e+00
     3.6808   3.299560   1818.121  800518281  0.000e+00
     3.6797   3.299141   1810.663  800518291  0.000e+00
     3.6818   3.298956   1803.055  800518301  0.000e+00
     3.6855   3.298846   1795.104  800518311  0.000e+00
     3.6839   3.298434   1787.145  800518321  0.000e+00
     3.6902   3.298595   1779.602  800518331  0.000e+00
     3.6903   3.298315   1771.956  800518341  0.000e+00
     3.7118   3.299548   1763.738  800518351  0.000e+00
     3.7178   3.299842   1756.284  800518361  0.000e+00
     3.7205   3.299846   1748.726  800518371  0.000e+00
     3.7225   3.299705   1741.224  800518381  0.000e+00
     3.7261   3.299589   1733.298  800518391  0.000e+00
     3.7308   3.299801   1726.101  800518401  0.000e+00
     3.7312   3.299749   1722.444  800518411  0.000e+00
     3.7307   3.299813   1722.895  800518421  0.000e+00
     3.7305   3.299832   1722.786  800518431  0.000e+00
     3.7311   3.299901   1722.986  800518441  0.000e+00
     3.7313   3.299939   1722.617  800518451  0.000e+00
     3.7322   3.300014   1722.791  800518461  0.000e+00
     3.7316   3.299996   1723.419  800518471  0.000e+00
     3.7318   3.300014   1722.899  800518481  0.000e+00
     3.7322   3.300040   1722.812  800518491  0.000e+00
     3.7320   3.300046   1723.181  800518501  0.000e+00
     3.7323   3.300071   1723.051  800518511  0.000e+00
     3.7322   3.300059   1722.466  800518521  0.000e+00
     3.7365   3.300038   1716.096  800518531  0.000e+00
     3.7058   3.296813   1708.103  800518541  0.000e+00
     3.7246   3.297863   1700.131  800518551  0.000e+00
     3.7369   3.298548   1691.770  800518561  0.000e+00
     3.7550   3.299649   1683.886  800518571  0.000e+00
     3.7595   3.299861   1675.920  800518581  0.000e+00
     3.7705   3.300653   1667.968  800518591  0.000e+00
     3.7782   3.300953   1659.890  800518601  0.000e+00
     3.7852   3.301202   1651.835  800518611  0.000e+00
     3.7925   3.301610   1643.996  800518621  0.000e+00
     3.8087   3.302692   1636.699  800518631  0.000e+00
     3.8098   3.302507   1629.403  800518641  0.000e+00
     3.8239   3.303331   1622.258  800518651  0.000e+00
     3.8174   3.302977   1620.574  800518661  0.000e+00
     3.8188   3.303116   1620.184  800518671  0.000e+00
     3.8319   3.304321   1620.422  800518681  0.000e+00
     3.8317   3.304410   1621.011  800518691  0.000e+00
     3.8320   3.304517   1620.570  800518701  0.000e+00
     3.8329   3.304605   1620.596  800518711  0.000e+00
     3.8336   3.304681   1620.617  800518721  0.000e+00
     3.8329   3.304662   1620.704  800518731  0.000e+00
     3.8329   3.304662   1620.422  800518741  0.000e+00
     3.8325   3.304675   1620.899  800518751  0.000e+00
     3.8330   3.304681   1620.318  800518761  0.000e+00
     3.8326   3.304681   1620.725  800518771  0.000e+00
     3.8327   3.304675   1620.747  800518781  0.000e+00
     3.8330   3.304675   1620.466  800518791  0.000e+00
     3.8324   3.304656   1620.617  800518801  0.000e+00
     3.8325   3.304662   1620.422  800518811  0.000e+00
     3.8324   3.304675   1621.007  800518821  0.000e+00
     3.8330   3.304674   1620.318  800518831  0.000e+00
     3.8329   3.304681   1620.661  800518841  0.000e+00
     3.8324   3.304662   1620.881  800518851  0.000e+00
     3.8331   3.304693   1620.188  800518861  0.000e+00
     3.8335   3.304712   1620.509  800518871  0.000e+00
     3.8331   3.304719   1621.011  800518881  0.000e+00
     3.8329   3.304693   1620.578  800518891  0.000e+00
     3.8330   3.304693   1620.492  800518901  0.000e+00
     3.8336   3.304738   1620.751  800518911  0.000e+00
     3.8334   3.304763   1621.119  800518921  0.000e+00
     3.8337   3.304775   1620.556  800518931  0.000e+00
     3.8344   3.304794   1620.171  800518941  0.000e+00
     3.8336   3.304757   1620.881  800518951  0.000e+00
     3.8335   3.304776   1620.816  800518961  0.000e+00
     3.8337   3.304769   1620.556  800518971  0.000e+00
     3.8339   3.304769   1620.405  800518981  0.000e+00
     3.8344   3.304826   1620.448  800518991  0.000e+00
     3.8343   3.304845   1620.925  800519001  0.000e+00
     3.8359   3.304952   1620.517  800519011  0.000e+00
     3.8350   3.304902   1620.842  800519021  0.000e+00
     3.8358   3.304958   1620.643  800519031  0.000e+00
     3.8367   3.305009   1620.387  800519041  0.000e+00
     3.8364   3.305028   1620.452  800519051  0.000e+00
     3.8364   3.305028   1621.054  800519061  0.000e+00
     3.8371   3.305059   1620.193  800519071  0.000e+00
     3.8498   3.305770   1613.066  800519081  0.000e+00
     3.8543   3.305824   1604.762  800519091  0.000e+00
     3.8620   3.306232   1597.030  800519101  0.000e+00
     3.8779   3.307069   1588.805  800519111  0.000e+00
     3.8982   3.308473   1580.446  800519121  0.000e+00
     3.9059   3.308736   1571.966  800519131  0.000e+00
     3.9219   3.310109   1564.154  800519141  0.000e+00
     3.9306   3.310751   1556.947  800519151  0.000e+00
     3.9385   3.310963   1549.088  800519161  0.000e+00
     3.9418   3.311213   1541.558  800519171  0.000e+00
     3.9475   3.311489   1534.163  800519181  0.000e+00
     3.9574   3.312017   1526.629  800519191  0.000e+00
     3.9632   3.312330   1519.109  800519201  0.000e+00
     3.9610   3.312298   1518.521  800519211  0.000e+00
     3.9617   3.312437   1518.153  800519221  0.000e+00
     3.9628   3.312564   1518.005  800519231  0.000e+00
     3.9634   3.312684   1518.395  800519241  0.000e+00
     3.9637   3.312759   1518.434  800519251  0.000e+00
     3.9639   3.312785   1518.460  800519261  0.000e+00
     3.9637   3.312759   1518.027  800519271  0.000e+00
     3.9643   3.312842   1518.698  800519281  0.000e+00
     3.9639   3.312816   1518.352  800519291  0.000e+00
     3.9640   3.312829   1518.460  800519301  0.000e+00
     3.9630   3.312632   1515.673  800519311  0.000e+00
     3.9712   3.312838   1507.708  800519321  0.000e+00
     3.9820   3.313398   1499.704  800519331  0.000e+00
     3.9938   3.314260   1491.896  800519341  0.000e+00
     4.0058   3.314845   1483.915  800519351  0.000e+00
     4.0213   3.316037   1475.999  800519361  0.000e+00
     4.0349   3.316988   1468.239  800519371  0.000e+00
     4.0519   3.318085   1460.280  800519381  0.000e+00
     4.0629   3.318904   1452.059  800519391  0.000e+00
     4.0693   3.319350   1444.257  800519401  0.000e+00
     4.0884   3.320764   1436.581  800519411  0.000e+00
     4.0852   3.320243   1429.533  800519421  0.000e+00
     4.0966   3.320936   1422.337  800519431  0.000e+00
     4.1568   3.326227   1415.350  800519441  0.000e+00
     4.1900   3.328951   1407.871  800519451  0.000e+00
     4.1866   3.328714   1400.093  800519461  0.000e+00
     4.1510   3.325138   1392.588  800519471  0.000e+00
     4.1521   3.324730   1385.092  800519481  0.000e+00
     4.1636   3.325348   1377.372  800519491  0.000e+00
     4.1810   3.326326   1370.071  800519501  0.000e+00
     4.1855   3.326786   1365.753  800519511  0.000e+00
     4.1784   3.326337   1366.311  800519521  0.000e+00
     4.1804   3.326565   1366.159  800519531  0.000e+00
     4.1892   3.327204   1365.818  800519541  0.000e+00
     4.1915   3.327571   1366.509  800519551  0.000e+00
     4.1923   3.327710   1366.228  800519561  0.000e+00
     4.1945   3.327900   1366.055  800519571  0.000e+00
     4.1930   3.327811   1365.796  800519581  0.000e+00
     4.1925   3.327811   1366.509  800519591  0.000e+00
     4.1928   3.327849   1366.034  800519601  0.000e+00
     4.1931   3.327855   1366.167  800519611  0.000e+00
     4.1954   3.327899   1363.423  800519621  0.000e+00
     4.2086   3.328687   1355.600  800519631  0.000e+00
     4.2703   3.333754   1347.626  800519641  0.000e+00
     4.3548   3.341200   1339.480  800519651  0.000e+00
     4.3931   3.344613   1331.637  800519661  0.000e+00
     4.4123   3.347230   1324.356  800519671  0.000e+00
     4.4210   3.347931   1316.320  800519681  0.000e+00
     4.4278   3.348163   1307.851  800519691  0.000e+00
     4.4467   3.349556   1300.204  800519701  0.000e+00
     4.4313   3.348190   1292.713  800519711  0.000e+00
     4.3898   3.344180   1284.635  800519721  0.000e+00
     4.4107   3.344843   1276.557  800519731  0.000e+00
     4.4399   3.347427   1268.718  800519741  0.000e+00
     4.4646   3.349511   1261.469  800519751  0.000e+00
     4.5077   3.352858   1253.130  800519761  0.000e+00
     4.5229   3.354360   1245.723  800519771  0.000e+00
     4.5508   3.356629   1238.209  800519781  0.000e+00
     4.5686   3.358360   1230.937  800519791  0.000e+00
     4.5840   3.359609   1223.398  800519801  0.000e+00
     4.5889   3.359924   1215.911  800519811  0.000e+00
     4.5843   3.359701   1214.788  800519821  0.000e+00
     4.5786   3.359237   1214.295  800519831  0.000e+00
     4.5738   3.358672   1215.029  800519841  0.000e+00
     4.5731   3.358634   1214.770  800519851  0.000e+00
     4.5726   3.358577   1214.644  800519861  0.000e+00
     4.5771   3.359034   1214.882  800519871  0.000e+00
     4.5772   3.359047   1214.666  800519881  0.000e+00
     4.5762   3.358990   1214.796  800519891  0.000e+00
     4.5748   3.358838   1214.860  800519901  0.000e+00
     4.5740   3.358799   1214.994  800519911  0.000e+00
     4.5743   3.358793   1214.436  800519921  0.000e+00
     4.5831   3.359255   1209.752  800519931  0.000e+00
     4.5711   3.357932   1201.825  800519941  0.000e+00
     4.6029   3.359986   1193.756  800519951  0.000e+00
     4.6071   3.359812   1185.486  800519961  0.000e+00
     4.6782   3.365253   1177.284  800519971  0.000e+00
     4.7325   3.370577   1169.475  800519981  0.000e+00
     4.7686   3.373881   1161.361  800519991  0.000e+00
     4.8476   3.380471   1152.708  800520001  0.000e+00
     4.9293   3.388785   1144.529  800520011  0.000e+00
     4.9817   3.393793   1137.585  800520021  0.000e+00
     4.9854   3.394549   1130.379  800520031  0.000e+00
     5.0689   3.401359   1122.979  800520041  0.000e+00
     5.0764   3.403009   1115.730  800520051  0.000e+00
     5.0757   3.403449   1112.929  800520061  0.000e+00
     5.0790   3.403934   1112.886  800520071  0.000e+00
     5.0813   3.404406   1113.274  800520081  0.000e+00
     5.0828   3.404674   1112.911  800520091  0.000e+00
     5.0866   3.405127   1112.609  800520101  0.000e+00
     5.0851   3.405102   1113.368  800520111  0.000e+00
     5.0883   3.405415   1113.170  800520121  0.000e+00
     5.0902   3.405632   1112.807  800520131  0.000e+00
     5.0893   3.405581   1112.854  800520141  0.000e+00
     5.0893   3.405626   1113.030  800520151  0.000e+00
     5.0892   3.405638   1113.249  800520161  0.000e+00
     5.0906   3.405580   1109.708  800520171  0.000e+00
     5.1153   3.407377   1101.363  800520181  0.000e+00
     5.1462   3.409814   1093.296  800520191  0.000e+00
     5.2022   3.414271   1084.668  800520201  0.000e+00
     5.2510   3.418743   1076.627  800520211  0.000e+00
     5.3078   3.423811   1068.216  800520221  0.000e+00
     5.3193   3.424915   1059.698  800520231  0.000e+00
     5.3752   3.429905   1051.485  800520241  0.000e+00
     5.4277   3.434493   1043.205  800520251  0.000e+00
     5.4957   3.440912   1036.521  800520261  0.000e+00
     5.5409   3.444974   1029.083  800520271  0.000e+00
     5.5660   3.447422   1021.910  800520281  0.000e+00
     5.5908   3.449883   1014.386  800520291  0.000e+00
     5.6267   3.453346   1007.660  800520301  0.000e+00
     5.7045   3.460163   1000.119  800520311  0.000e+00
     5.7276   3.462660    992.424  800520321  0.000e+00
     5.7475   3.464508    984.754  800520331  0.000e+00
     5.8067   3.469598    976.650  800520341  0.000e+00
     5.8413   3.473017    969.150  800520351  0.000e+00
     5.8859   3.476998    961.697  800520361  0.000e+00
     5.9367   3.481527    953.961  800520371  0.000e+00
     5.9762   3.485299    946.336  800520381  0.000e+00
     5.9752   3.485737    943.902  800520391  0.000e+00
     5.9828   3.486774    943.733  800520401  0.000e+00
     5.9876   3.487438    944.016  800520411  0.000e+00
     5.9885   3.487696    944.623  800520421  0.000e+00
     5.9956   3.488424    943.825  800520431  0.000e+00
     6.0012   3.489139    943.373  800520441  0.000e+00
     6.0000   3.489036    943.850  800520451  0.000e+00
     6.0008   3.489184    943.850  800520461  0.000e+00
     5.9977   3.488978    944.004  800520471  0.000e+00
     5.9987   3.489094    944.223  800520481  0.000e+00
     5.9998   3.489184    943.706  800520491  0.000e+00
     5.9991   3.489133    943.752  800520501  0.000e+00
     6.0083   3.489570    941.124  800520511  0.000e+00
     6.0576   3.493662    933.737  800520521  0.000e+00
     6.0673   3.494368    925.919  800520531  0.000e+00
     6.1622   3.502740    918.292  800520541  0.000e+00
     6.2347   3.508911    910.669  800520551  0.000e+00
     6.2658   3.512333    903.173  800520561  0.000e+00
     6.3174   3.516551    895.184  800520571  0.000e+00
     6.3686   3.521547    887.495  800520581  0.000e+00
     6.4336   3.527408    880.175  800520591  0.000e+00
     6.4510   3.529237    872.575  800520601  0.000e+00
     6.5439   3.537480    864.607  800520611  0.000e+00
     6.5509   3.538697    859.546  800520621  0.000e+00
     6.5437   3.538639    859.633  800520631  0.000e+00
     6.5605   3.540415    860.432  800520641  0.000e+00
     6.5712   3.541504    859.639  800520651  0.000e+00
     6.5795   3.542548    859.790  800520661  0.000e+00
     6.5768   3.542451    859.534  800520671  0.000e+00
     6.5696   3.541971    860.309  800520681  0.000e+00
     6.5748   3.542399    860.079  800520691  0.000e+00
     6.5772   3.542684    859.651  800520701  0.000e+00
     6.5768   3.542723    860.036  800520711  0.000e+00
     6.5775   3.542801    860.039  800520721  0.000e+00
     6.6472   3.548727    853.385  800520731  0.000e+00
     6.7105   3.554021    844.861  800520741  0.000e+00
     6.5756   3.540880    836.897  800520751  0.000e+00
     6.7765   3.558392    828.457  800520761  0.000e+00
     6.7836   3.558655    819.762  800520771  0.000e+00
     6.8760   3.566490    812.528  800520781  0.000e+00
     6.9116   3.569687    805.083  800520791  0.000e+00
     7.0017   3.578169    797.915  800520801  0.000e+00
     7.0152   3.579442    790.298  800520811  0.000e+00
     7.0388   3.581595    782.679  800520821  0.000e+00
     7.1387   3.589939    775.256  800520831  0.000e+00
     7.1851   3.594455    768.286  800520841  0.000e+00
     7.2472   3.600108    760.708  800520851  0.000e+00
     7.2697   3.601913    753.010  800520861  0.000e+00
     7.3313   3.607049    745.433  800520871  0.000e+00
     7.4146   3.614782    738.572  800520881  0.000e+00
     7.4279   3.615564    730.552  800520891  0.000e+00
     7.4839   3.620877    723.086  800520901  0.000e+00
     7.8828   3.659074    715.517  800520911  0.000e+00
     7.9728   3.669679    707.710  800520921  0.000e+00
     7.9695   3.671639    706.613  800520931  0.000e+00
     7.9837   3.673882    707.089  800520941  0.000e+00
     7.9916   3.675376    707.135  800520951  0.000e+00
     7.9891   3.675665    706.662  800520961  0.000e+00
     7.9896   3.676067    706.815  800520971  0.000e+00
     7.9922   3.676521    706.796  800520981  0.000e+00
     7.9910   3.676528    706.863  800520991  0.000e+00
     7.9915   3.676686    706.850  800521001  0.000e+00
     7.9926   3.676896    706.979  800521011  0.000e+00
     7.9925   3.676962    707.041  800521021  0.000e+00
     7.9929   3.677087    706.530  800521031  0.000e+00
     7.9948   3.677238    706.772  800521041  0.000e+00
     7.9935   3.677107    706.858  800521051  0.000e+00
     7.9943   3.677265    706.710  800521061  0.000e+00
     7.9954   3.677403    706.860  800521071  0.000e+00
     7.9958   3.677469    706.973  800521081  0.000e+00
     7.9945   3.677317    707.102  800521091  0.000e+00
     7.9969   3.677561    706.268  800521101  0.000e+00
     7.9967   3.677574    706.827  800521111  0.000e+00
     7.9973   3.677620    707.110  800521121  0.000e+00
     7.9967   3.677587    706.983  800521131  0.000e+00
     7.9954   3.677488    706.768  800521141  0.000e+00
     7.9955   3.677482    706.534  800521151  0.000e+00
     7.9975   3.677646    706.644  800521161  0.000e+00
     7.9977   3.677686    706.515  800521171  0.000e+00
     7.9986   3.677771    706.880  800521181  0.000e+00
     7.9958   3.677257    703.204  800521191  0.000e+00
     8.1168   3.687461    695.334  800521201  0.000e+00
     8.1193   3.687893    687.590  800521211  0.000e+00
     8.1944   3.694488    680.495  800521221  0.000e+00
     8.1565   3.691442    680.497  800521231  0.000e+00
     8.1599   3.692121    680.820  800521241  0.000e+00
     8.1472   3.691100    680.779  800521251  0.000e+00
     8.1624   3.692543    680.887  800521261  0.000e+00
     8.1626   3.692649    680.674  800521271  0.000e+00
     8.1710   3.693459    680.308  800521281  0.000e+00
     8.1684   3.693288    680.846  800521291  0.000e+00
     8.1655   3.692992    680.975  800521301  0.000e+00
     8.1980   3.695800    680.442  800521311  0.000e+00
     8.1992   3.696137    680.313  800521321  0.000e+00
     8.2355   3.699016    672.979  800521331  0.000e+00
     8.3045   3.705217    665.196  800521341  0.000e+00
     8.3568   3.709631    657.476  800521351  0.000e+00
     8.3990   3.713248    649.436  800521361  0.000e+00
     8.4884   3.720694    641.671  800521371  0.000e+00
     8.5414   3.725195    633.632  800521381  0.000e+00
     8.6137   3.731195    625.808  800521391  0.000e+00
     8.7164   3.739921    618.262  800521401  0.000e+00
     8.7660   3.745128    610.267  800521411  0.000e+00
     8.7846   3.747002    605.086  800521421  0.000e+00
     8.7626   3.745948    605.000  800521431  0.000e+00
     8.7718   3.746956    605.325  800521441  0.000e+00
     8.7913   3.748787    605.733  800521451  0.000e+00
     8.7913   3.748985    605.069  800521461  0.000e+00
     8.7919   3.749271    605.563  800521471  0.000e+00
     8.7912   3.749277    605.415  800521481  0.000e+00
     8.7914   3.749383    605.548  800521491  0.000e+00
     8.7906   3.749330    605.140  800521501  0.000e+00
     8.7916   3.749463    605.806  800521511  0.000e+00
     8.7918   3.749496    605.464  800521521  0.000e+00
     8.8052   3.750197    600.047  800521531  0.000e+00
     8.8762   3.755410    592.418  800521541  0.000e+00
     9.0121   3.767786    584.274  800521551  0.000e+00
     9.0756   3.774551    576.429  800521561  0.000e+00
     9.1101   3.778141    568.714  800521571  0.000e+00
     9.1536   3.781991    560.655  800521581  0.000e+00
     9.2036   3.785995    552.384  800521591  0.000e+00
     9.2590   3.792281    545.015  800521601  0.000e+00
     9.3621   3.801918    537.218  800521611  0.000e+00
     9.4202   3.807853    529.504  800521621  0.000e+00
     9.4528   3.811696    522.459  800521631  0.000e+00
     9.4694   3.813543    515.692  800521641  0.000e+00
     9.4666   3.813100    508.390  800521651  0.000e+00
     9.4519   3.811281    501.453  800521661  0.000e+00
     9.5275   3.817536    493.873  800521671  0.000e+00
     9.5691   3.821784    486.226  800521681  0.000e+00
     9.5832   3.823352    478.925  800521691  0.000e+00
     9.6104   3.825702    471.432  800521701  0.000e+00
     9.6592   3.830168    463.980  800521711  0.000e+00
     9.6714   3.831637    456.895  800521721  0.000e+00
     9.6656   3.831550    455.671  800521731  0.000e+00
     9.6685   3.831944    455.524  800521741  0.000e+00
     9.6766   3.832848    455.632  800521751  0.000e+00
     9.6776   3.833075    455.805  800521761  0.000e+00
     9.6769   3.833135    455.528  800521771  0.000e+00
     9.6757   3.833082    455.807  800521781  0.000e+00
     9.6756   3.833156    455.852  800521791  0.000e+00
     9.6742   3.833028    455.724  800521801  0.000e+00
     9.6746   3.833055    455.511  800521811  0.000e+00
     9.6757   3.833149    455.834  800521821  0.000e+00
     9.6755   3.833136    455.835  800521831  0.000e+00
     9.6752   3.833189    456.071  800521841  0.000e+00
     9.6745   3.833102    455.279  800521851  0.000e+00
     9.6742   3.833062    455.751  800521861  0.000e+00
     9.6732   3.833002    455.882  800521871  0.000e+00
     9.6726   3.832922    456.010  800521881  0.000e+00
     9.6734   3.832948    455.647  800521891  0.000e+00
     9.6738   3.833008    455.540  800521901  0.000e+00
     9.6732   3.832955    455.606  800521911  0.000e+00
     9.6734   3.833009    456.057  800521921  0.000e+00
     9.6716   3.832821    455.906  800521931  0.000e+00
     9.6729   3.832861    455.500  800521941  0.000e+00
     9.6740   3.832995    455.609  800521951  0.000e+00
     9.6721   3.832861    456.124  800521961  0.000e+00
     9.6721   3.832855    456.017  800521971  0.000e+00
     9.6721   3.832861    455.503  800521981  0.000e+00
     9.6721   3.832821    455.696  800521991  0.000e+00
     9.6710   3.832768    456.083  800522001  0.000e+00
     9.6699   3.832667    456.106  800522011  0.000e+00
     9.6709   3.832707    455.526  800522021  0.000e+00
     9.6709   3.832707    455.635  800522031  0.000e+00
     9.6714   3.832761    456.258  800522041  0.000e+00
     9.6712   3.832808    456.000  800522051  0.000e+00
     9.6709   3.832714    455.807  800522061  0.000e+00
     9.6699   3.832654    455.873  800522071  0.000e+00
     9.6702   3.832654    456.002  800522081  0.000e+00
     9.6696   3.832634    456.088  800522091  0.000e+00
     9.6694   3.832567    455.916  800522101  0.000e+00
     9.6685   3.832493    456.023  800522111  0.000e+00
     9.6683   3.832486    455.704  800522121  0.000e+00
     9.6694   3.832560    455.853  800522131  0.000e+00
     9.6699   3.832573    455.830  800522141  0.000e+00
     9.6671   3.832339    455.917  800522151  0.000e+00
     9.6683   3.832453    455.661  800522161  0.000e+00
     9.6686   3.832480    456.219  800522171  0.000e+00
     9.6678   3.832466    455.552  800522181  0.000e+00
     9.6687   3.832486    455.831  800522191  0.000e+00
     9.6678   3.832406    455.790  800522201  0.000e+00
     9.6684   3.832473    456.025  800522211  0.000e+00
     9.6674   3.832366    455.899  800522221  0.000e+00
     9.6680   3.832440    456.091  800522231  0.000e+00
     9.6684   3.832453    455.727  800522241  0.000e+00
     9.6676   3.832413    456.028  800522251  0.000e+00
     9.6678   3.832440    456.135  800522261  0.000e+00
     9.6673   3.832366    455.943  800522271  0.000e+00
     9.6877   3.833641    448.213  800522281  0.000e+00
     9.7625   3.840186    440.010  800522291  0.000e+00
     9.8130   3.844463    432.129  800522301  0.000e+00
     9.8911   3.851685    423.993  800522311  0.000e+00
     9.9481   3.857196    415.857  800522321  0.000e+00
     9.9905   3.860903    407.826  800522331  0.000e+00
    10.0583   3.867749    400.745  800522341  0.000e+00
    10.0877   3.870575    393.554  800522351  0.000e+00
    10.0641   3.867946    386.792  800522361  0.000e+00
    10.0899   3.870059    379.496  800522371  0.000e+00
    10.0713   3.867819    371.834  800522381  0.000e+00
    10.1332   3.873487    364.795  800522391  0.000e+00
    10.2512   3.885609    357.199  800522401  0.000e+00
    10.2460   3.886132    353.421  800522411  0.000e+00
    10.2426   3.886220    353.723  800522421  0.000e+00
    10.2410   3.886301    353.594  800522431  0.000e+00
    10.2357   3.885910    353.574  800522441  0.000e+00
    10.2299   3.885312    354.089  800522451  0.000e+00
    10.2268   3.884989    354.026  800522461  0.000e+00
    10.2267   3.885002    353.854  800522471  0.000e+00
    10.2287   3.885332    353.424  800522481  0.000e+00
    10.2264   3.885036    353.726  800522491  0.000e+00
    10.2270   3.885076    353.704  800522501  0.000e+00
    10.2278   3.885211    354.072  800522511  0.000e+00
    10.2327   3.885674    351.690  800522521  0.000e+00
    10.2487   3.886707    343.235  800522531  0.000e+00
    10.1881   3.879694    335.212  800522541  0.000e+00
    10.0334   3.862444    326.907  800522551  0.000e+00
    10.0619   3.863367    319.056  800522561  0.000e+00
    10.1122   3.866694    311.033  800522571  0.000e+00
    10.1396   3.868310    304.276  800522581  0.000e+00
    10.1302   3.867719    303.096  800522591  0.000e+00
    10.1353   3.868129    303.269  800522601  0.000e+00
    10.1342   3.868041    303.011  800522611  0.000e+00
    10.1385   3.868411    303.290  800522621  0.000e+00
    10.1357   3.868209    303.097  800522631  0.000e+00
    10.1362   3.868337    303.334  800522641  0.000e+00
    10.1382   3.868471    302.861  800522651  0.000e+00
    10.1376   3.868444    303.290  800522661  0.000e+00
    10.1378   3.868458    303.270  800522671  0.000e+00
    10.1377   3.868431    302.798  800522681  0.000e+00
    10.1400   3.868274    295.785  800522691  0.000e+00
    10.2492   3.877753    287.956  800522701  0.000e+00
    10.3613   3.888251    279.763  800522711  0.000e+00
    10.5113   3.903734    271.806  800522721  0.000e+00
    10.6047   3.913235    263.464  800522731  0.000e+00
    10.6709   3.922117    255.272  800522741  0.000e+00
    10.7139   3.926621    248.603  800522751  0.000e+00
    10.7660   3.931289    241.142  800522761  0.000e+00
    10.8123   3.936298    233.980  800522771  0.000e+00
    10.8373   3.938933    226.649  800522781  0.000e+00
    10.8618   3.941265    219.318  800522791  0.000e+00
    10.8880   3.943760    211.706  800522801  0.000e+00
    10.9533   3.949919    203.519  800522811  0.000e+00
    10.9600   3.950845    196.403  800522821  0.000e+00
    11.0087   3.955273    188.515  800522831  0.000e+00
    11.0534   3.959602    180.865  800522841  0.000e+00
    11.0667   3.960990    173.599  800522851  0.000e+00
    11.0904   3.963035    165.563  800522861  0.000e+00
    11.1219   3.965909    157.849  800522871  0.000e+00
    11.1381   3.967500    150.608  800522881  0.000e+00
    11.2165   3.974761    142.744  800522891  0.000e+00
    11.2847   3.981953    135.053  800522901  0.000e+00
    11.3213   3.986206    127.534  800522911  0.000e+00
    11.3067   3.984646    119.864  800522921  0.000e+00
    11.3076   3.984514    111.789  800522931  0.000e+00
    11.3075   3.983940    104.612  800522941  0.000e+00
    11.2910   3.981354     96.859  800522951  0.000e+00
    11.3117   3.982975     89.557  800522961  0.000e+00
    11.2932   3.980342     81.997  800522971  0.000e+00
    11.3147   3.981998     75.015  800522981  0.000e+00
    11.3126   3.980738     68.183  800522991  0.000e+00
    11.3289   3.981177     60.796  800523001  0.000e+00
    11.3364   3.981493     53.323  800523011  0.000e+00
    11.4046   3.986881     46.085  800523021  0.000e+00
    11.4690   3.991414     38.164  800523031  0.000e+00
    11.5932   4.001825     30.756  800523041  0.000e+00
    11.6606   4.008126     30.757  800523051  0.000e+00
    11.7055   4.013116     30.308  800523061  0.000e+00
    11.6930   4.012652     30.650  800523071  0.000e+00
    11.6929   4.013048     30.845  800523081  0.000e+00
    11.6854   4.012516     30.330  800523091  0.000e+00
    11.6795   4.012216     30.674  800523101  0.000e+00
    11.6586   4.010689     30.824  800523111  0.000e+00
    11.6714   4.011609     30.889  800523121  0.000e+00
    11.6687   4.011418     30.375  800523131  0.000e+00
    11.7816   4.020863     28.556  800523141  0.000e+00
    12.0048   4.040451     26.843  800523151  0.000e+00
    12.1014   4.050779     24.532  800523161  0.000e+00
    12.1092   4.052497     22.691  800523171  0.000e+00
    12.1449   4.056076     20.315  800523181  0.000e+00
    12.2213   4.063275     18.325  800523191  0.000e+00
    12.2679   4.067777     13.787  800523201  0.000e+00
    12.3508   4.075737      7.001  800523211  0.000e+00
    12.3560   4.077198      5.267  800523221  0.000e+00
    12.3595   4.077849      4.691  800523231  0.000e+00
    12.3574   4.078090      5.119  800523241  0.000e+00
    12.3580   4.078316      5.076  800523251  0.000e+00
    12.3589   4.078550      5.206  800523261  0.000e+00
    12.3569   4.078426      5.056  800523271  0.000e+00
    12.3581   4.078632      5.099  800523281  0.000e+00
    12.3582   4.078701      4.928  800523291  0.000e+00
    12.3601   4.078865      4.951  800523301  0.000e+00
    12.3615   4.079064      4.951  800523311  0.000e+00
    12.3814   4.080470      0.841  800523321  0.000e+00
    12.3872   3.899673      0.478  800523331  0.000e+00
    12.3863   2.321389      0.435  800523341  0.000e+00
    12.3837   2.040180      0.456  800523351  0.000e+00
    12.3841   2.001021      0.479  800523361  0.000e+00
    12.3861   2.046203      0.457  800523371  0.000e+00
    12.3904   2.046659      0.500  800523381  0.000e+00
    12.3972   0.637875      0.458  800523391  0.000e+00
    12.4054  -0.000008      0.480  800523401  0.000e+00
    12.4155   0.000019      0.480  800523411  0.000e+00
    12.4239   0.000016      0.437  800523421  0.000e+00
    12.4345   0.000031      0.481  800523431  0.000e+00
    12.4457   0.000019      0.396  800523441  0.000e+00
    12.4584   0.000016      0.438  800523451  0.000e+00
    12.4726   0.000016      0.417  800523461  0.000e+00
    12.4838   0.000016      0.460  800523471  0.000e+00
    12.4971   0.000016      0.439  800523481  0.000e+00
    12.5102   0.000016      0.439  800523491  0.000e+00
    12.5231   0.000016      0.418  800523501  0.000e+00
    12.5371   0.000016      0.418  800523511  0.000e+00
    12.5511   0.000016      0.397  800523521  0.000e+00
    12.5656   0.000016      0.397  800523531  0.000e+00
    12.5805   0.000016      0.397  800523541  0.000e+00
    12.5931   0.000016      0.419  800523551  0.000e+00
    12.6084   0.000016      0.376  800523561  0.000e+00
    12.6209   0.000016      0.440  800523571  0.000e+00
    12.6348   0.000016      0.419  800523581  0.000e+00
    12.6489   0.000016      0.420  800523591  0.000e+00
    12.6630   0.000016      0.398  800523601  0.000e+00
    12.6744   0.000016      0.398  800523611  0.000e+00
    12.6867   0.000016      0.441  800523621  0.000e+00
    12.7010   0.000016      0.398  800523631  0.000e+00
    12.7122   0.000016      0.377  800523641  0.000e+00
    12.7245   0.000016      0.420  800523651  0.000e+00
    12.7366   0.000016      0.398  800523661  0.000e+00
    12.7506   0.000016      0.398  800523671  0.000e+00
    12.7623   0.000016      0.399  800523681  0.000e+00
    12.7732   0.000016      0.420  800523691  0.000e+00
    12.7866   0.000016      0.420  800523701  0.000e+00
    12.7983   0.000016      0.399  800523711  0.000e+00
    12.8095   0.000016      0.399  800523721  0.000e+00
    12.8207   0.000016      0.378  800523731  0.000e+00
    12.8311   0.000016      0.421  800523741  0.000e+00
    12.8402   0.000016      0.399  800523751  0.000e+00
    12.8500   0.000016      0.442  800523761  0.000e+00
    12.8577   0.000016      0.421  800523771  0.000e+00
    12.8663   0.000016      0.421  800523781  0.000e+00
    12.8734   0.000016      0.421  800523791  0.000e+00
    12.8799   0.000016      0.421  800523801  0.000e+00
    12.8879   0.000016      0.378  800523811  0.000e+00
    12.8940   0.000016      0.421  800523821  0.000e+00
    12.9005   0.000016      0.421  800523831  0.000e+00
    12.9061   0.000016      0.399  800523841  0.000e+00
    12.9098   0.000016      0.442  800523851  0.000e+00
    12.9147   0.000016      0.421  800523861  0.000e+00
    12.9187   0.000016      0.442  800523871  0.000e+00
    12.9240   0.000016      0.421  800523881  0.000e+00
    12.9275   0.000016      0.421  800523891  0.000e+00
    12.9327   0.000016      0.421  800523901  0.000e+00
    12.9346   0.000016      0.421  800523911  0.000e+00
    12.9395   0.000016      0.443  800523921  0.000e+00
    12.9427   0.000016      0.464  800523931  0.000e+00
    12.9466   0.000016      0.400  800523941  0.000e+00
    12.9489   0.000019      0.443  800523951  0.000e+00
    12.9531   0.000016      0.464  800523961  0.000e+00
    12.9571   0.000019      0.464  800523971  0.000e+00
    12.9595   0.000016      0.379  800523981  0.000e+00
    12.9625   0.000016      0.464  800523991  0.000e+00
    12.9684   0.000016      0.443  800524001  0.000e+00
    12.9710   0.000016      0.422  800524011  0.000e+00
    12.9754   0.000016      0.443  800524021  0.000e+00
    12.9803   0.000016      0.421  800524031  0.000e+00
    12.9868   0.000016      0.486  800524041  0.000e+00
    12.9915   0.000016      0.464  800524051  0.000e+00
    12.9960   0.000016      0.464  800524061  0.000e+00
    12.9992   0.000016      0.443  800524071  0.000e+00
    13.0050   0.000016      0.464  800524081  0.000e+00
    13.0082   0.000019      0.464  800524091  0.000e+00
    13.0137   0.000019      0.486  800524101  0.000e+00
    13.0174   0.000016      0.486  800524111  0.000e+00
    13.0211   0.000016      0.486  800524121  0.000e+00
    13.0249   0.000016      0.464  800524131  0.000e+00
    13.0292   0.000016      0.464  800524141  0.000e+00
    13.0331   0.000016      0.464  800524151  0.000e+00
    13.0378   0.000016      0.486  800524161  0.000e+00
    13.0431   0.000019      0.464  800524171  0.000e+00
    13.0484   0.000019      0.486  800524181  0.000e+00
    13.0532   0.000016      0.464  800524191  0.000e+00
    13.0591   0.000016      0.486  800524201  0.000e+00
    13.0657   0.000019      0.464  800524211  0.000e+00
    13.0730   0.000016      0.464  800524221  0.000e+00
    13.0781   0.000016      0.443  800524231  0.000e+00
    13.0855   0.000016      0.464  800524241  0.000e+00
    13.0940   0.000016      0.464  800524251  0.000e+00
    13.0997   0.000016      0.486  800524261  0.000e+00
    13.1077   0.000016      0.486  800524271  0.000e+00
    13.1178   0.000019      0.486  800524281  0.000e+00
    13.1253   0.000016      0.465  800524291  0.000e+00
    13.1361   0.000016      0.507  800524301  0.000e+00
    13.1445   0.000016      0.486  800524311  0.000e+00
    13.1558   0.000016      0.529  800524321  0.000e+00
    13.1681   0.000016      0.486  800524331  0.000e+00
    13.1808   0.000016      0.507  800524341  0.000e+00
    13.1930   0.000016      0.465  800524351  0.000e+00
    13.2037   0.000019      0.507  800524361  0.000e+00
    13.2160   0.000019      0.443  800524371  0.000e+00
    13.2256   0.000016      0.486  800524381  0.000e+00
    13.2368   0.000016      0.507  800524391  0.000e+00
    13.2501   0.000019      0.486  800524401  0.000e+00
    13.2648   0.000016      0.507  800524411  0.000e+00
    13.2788   0.000016      0.486  800524421  0.000e+00
    13.2916   0.000016      0.465  800524431  0.000e+00
    13.3027   0.000019      0.529  800524441  0.000e+00
    13.3122   0.000016      0.486  800524451  0.000e+00
    13.3226   0.000016      0.529  800524461  0.000e+00
    13.3309   0.000019      0.465  800524471  0.000e+00
    13.3387   0.000019      0.529  800524481  0.000e+00
    13.3492   0.000016      0.507  800524491  0.000e+00
    13.3679   0.000016      0.507  800524501  0.000e+00
    13.3864   0.000016      0.529  800524511  0.000e+00
    13.4181   0.000019      0.507  800524521  0.000e+00
    13.3825   0.000019      0.550  800524531  0.000e+00
    13.3949   0.000019      0.550  800524541  0.000e+00
    13.4104   0.000019      0.593  800524551  0.000e+00
    13.4202   0.000019      0.550  800524561  0.000e+00
    13.4279   0.000019      0.614  800524571  0.000e+00
    13.4346   0.000019      0.614  800524581  0.000e+00
    13.4349   0.000019      0.636  800524591  0.000e+00
    13.4379   0.000019      0.614  800524601  0.000e+00
    13.4401   0.000019      0.657  800524611  0.000e+00
    13.4424   0.000019      0.657  800524621  0.000e+00
    13.4456   0.000016      0.700  800524631  0.000e+00
    13.4474   0.000019      0.678  800524641  0.000e+00
    13.4498   0.000019      0.678  800524651  0.000e+00
    13.4521   0.000019      0.678  800524661  0.000e+00
