* Sea-Bird SBE37SM-RS232  Data File:
* FileName = C:\CE25007_recovery_data\7923_cal_dip_data.hex
* Software version SeatermV2 2.8.0.119
* Temperature SN = 7923
* Conductivity SN = 7923
* System UpLoad Time = May 14 2025 13:22:01
* sample interval = 10 seconds
* <ApplicationData>
* <Seaterm232>
* <SoftwareVersion>2.8.0.119</SoftwareVersion>
* <BuildDate>07-Nov-2018</BuildDate>
* </Seaterm232>
* </ApplicationData>
* <InstrumentState>
* <HardwareData DeviceType='SBE37SM-RS232' SerialNumber='03707923'>
*
*    <Manufacturer>Sea-Bird Electronics, Inc.</Manufacturer>
*
*    <FirmwareVersion>3.1</FirmwareVersion>
*
*    <FirmwareDate>Jan 20 2012 17:33:01</FirmwareDate>
*
*    <PCBAssembly>41647</PCBAssembly>
*
*    <PCBAssembly>41610B</PCBAssembly>
*
*    <PCBAssembly>41611D</PCBAssembly>
*
*    <MfgDate>8 Jun 2010</MfgDate>
*
*    <FirmwareLoader>SBE 37 FirmwareLoader V 1.0</FirmwareLoader>
*
*    <InternalSensors>
*
*       <Sensor id='Temperature'>
*
*          <type>temperature-1</type>
*
*          <SerialNumber>03707923</SerialNumber>
*
*       </Sensor>
*
*       <Sensor id='Conductivity'>
*
*          <type>conductivity-1</type>
*
*          <SerialNumber>03707923</SerialNumber>
*
*       </Sensor>
*
*       <Sensor id='Pressure'>
*
*          <type>strain-0</type>
*
*          <SerialNumber>2078873</SerialNumber>
*
*       </Sensor>
*
*    </InternalSensors>
*
* </HardwareData>
* <StatusData DeviceType='SBE37SM-RS232' SerialNumber='03707923'>
*
*    <DateTime>2025-05-14T13:20:39</DateTime>
*
*    <EventSummary numEvents='1'/>
*
*    <Power>
*
*       <vMain> 6.96</vMain>
*
*       <vLith> 3.04</vLith>
*
*    </Power>
*
*    <MemorySummary>
*
*       <Bytes>715005</Bytes>
*
*       <Samples>47667</Samples>
*
*       <SamplesFree>511573</SamplesFree>
*
*       <SampleLength>15</SampleLength>
*
*    </MemorySummary>
*
*    <AutonomousSampling>no, stop command</AutonomousSampling>
*
* </StatusData>
* <ConfigurationData DeviceType='SBE37SM-RS232' SerialNumber='03707923'>
*
*    <PressureInstalled>yes</PressureInstalled>
*
*    <PumpInstalled>yes</PumpInstalled>
*
*    <MinCondFreq>3300.0</MinCondFreq>
*
*    <SampleDataFormat>converted engineering alternate</SampleDataFormat>
*
*    <OutputSalinity>no</OutputSalinity>
*
*    <OutputSV>no</OutputSV>
*
*    <TxRealTime>no</TxRealTime>
*
*    <SampleInterval>10</SampleInterval>
*
*    <SyncMode>no</SyncMode>
*
* </ConfigurationData>
* <CalibrationCoefficients DeviceType='SBE37SM-RS232' SerialNumber='03707923'>
*
*    <Calibration format='TEMP1' id='Temperature'>
*
*       <SerialNum>03707923</SerialNum>
*
*       <CalDate>31-Oct-23</CalDate>
*
*       <A0>-1.133616e-04</A0>
*
*       <A1>3.095691e-04</A1>
*
*       <A2>-4.701644e-06</A2>
*
*       <A3>2.052530e-07</A3>
*
*    </Calibration>
*
*    <Calibration format='WBCOND0' id='Conductivity'>
*
*       <SerialNum>03707923</SerialNum>
*
*       <CalDate>31-Oct-23</CalDate>
*
*       <G>-1.013731e+00</G>
*
*       <H>1.598088e-01</H>
*
*       <I>-1.812993e-04</I>
*
*       <J>3.876010e-05</J>
*
*       <PCOR>-9.570000e-08</PCOR>
*
*       <TCOR>3.250000e-06</TCOR>
*
*       <WBOTC>2.645169e-07</WBOTC>
*
*    </Calibration>
*
*    <Calibration format='STRAIN0' id='Pressure'>
*
*       <SerialNum>2078873</SerialNum>
*
*       <CalDate>27-Oct-23</CalDate>
*
*       <PA0>4.092403e+00</PA0>
*
*       <PA1>3.393653e-02</PA1>
*
*       <PA2>2.459227e-09</PA2>
*
*       <PTCA0>5.242921e+05</PTCA0>
*
*       <PTCA1>2.584227e-01</PTCA1>
*
*       <PTCA2>2.124589e-01</PTCA2>
*
*       <PTCB0>1.003336e+02</PTCB0>
*
*       <PTCB1>-2.133772e-03</PTCB1>
*
*       <PTCB2>0.000000e+00</PTCB2>
*
*       <PTEMPA0>-9.068775e+01</PTEMPA0>
*
*       <PTEMPA1>3.964025e-02</PTEMPA1>
*
*       <PTEMPA2>9.814208e-07</PTEMPA2>
*
*       <POFFSET>0.000000e+00</POFFSET>
*
*       <PRANGE>1.015300e+04</PRANGE>
*
*    </Calibration>
*
* </CalibrationCoefficients>
* <EventCounters DeviceType='SBE37SM-RS232' SerialNumber='03707923'>
*
*    <EventSummary numEvents='1'/>
*
*    <Event type='PON reset' count='1'/>
*
* </EventCounters></InstrumentState>
# nquan = 5
# nvalues = 1346                                  
# units = specified
# name 0 = tv290C: Temperature [ITS-90, deg C]
# name 1 = cond0S/m: Conductivity [S/m]
# name 2 = prdM: Pressure, Strain Gauge [db]
# name 3 = timeK: Time, Instrument [seconds]
# name 4 = flag:  0.000e+00
# span 0 =     2.8041,    16.0864                 
# span 1 =  -0.011836,   4.215824                 
# span 2 =      0.782,   2416.525                 
# span 3 =  800511301,  800524751                 
# span 4 = 0.0000e+00, 0.0000e+00                 
# interval = seconds: 10
# start_time = May 14 2025 04:15:01 [Instrument's time stamp, first data scan]
# bad_flag = -9.990e-29
# <Sensors count="3" >
#   <sensor Channel="1" >
#     <!-- Count, Temperature -->
#     <TemperatureSensor SensorID="58" >
#       <SerialNumber>7923</SerialNumber>
#       <CalibrationDate>31-Oct-23</CalibrationDate>
#       <A0>-1.13361600e-004</A0>
#       <A1>3.09569100e-004</A1>
#       <A2>-4.70164400e-006</A2>
#       <A3>2.05253000e-007</A3>
#       <Slope>1.00000000</Slope>
#       <Offset>0.0000</Offset>
#     </TemperatureSensor>
#   </sensor>
#   <sensor Channel="2" >
#     <!-- Frequency 0, Conductivity -->
#     <ConductivitySensor SensorID="3" >
#       <SerialNumber>7923</SerialNumber>
#       <CalibrationDate>31-Oct-23</CalibrationDate>
#       <UseG_J>1</UseG_J>
#       <!-- Cell const and series R are applicable only for wide range sensors. -->
#       <SeriesR>0.0000</SeriesR>
#       <CellConst>2000.0000</CellConst>
#       <ConductivityType>1</ConductivityType>
#       <Coefficients equation="0" >
#         <A>0.00000000e+000</A>
#         <B>0.00000000e+000</B>
#         <C>0.00000000e+000</C>
#         <D>0.00000000e+000</D>
#         <M>0.0</M>
#         <CPcor>-9.57000000e-008</CPcor>
#       </Coefficients>
#       <Coefficients equation="1" >
#         <G>-1.01373100e+000</G>
#         <H>1.59808800e-001</H>
#         <I>-1.81299300e-004</I>
#         <J>3.87601000e-005</J>
#         <CPcor>-9.57000000e-008</CPcor>
#         <CTcor>3.2500e-006</CTcor>
#         <!-- WBOTC not applicable unless ConductivityType = 1. -->
#         <WBOTC>2.64516900e-007</WBOTC>
#       </Coefficients>
#       <Slope>1.00000000</Slope>
#       <Offset>0.00000</Offset>
#     </ConductivitySensor>
#   </sensor>
#   <sensor Channel="3" >
#     <!-- Count, Pressure, Strain Gauge -->
#     <PressureSensor SensorID="46" >
#       <SerialNumber>2078873</SerialNumber>
#       <CalibrationDate>27-Oct-23</CalibrationDate>
#       <PA0>4.09240300e+000</PA0>
#       <PA1>3.39365300e-002</PA1>
#       <PA2>2.45922700e-009</PA2>
#       <PTEMPA0>-9.06877500e+001</PTEMPA0>
#       <PTEMPA1>3.96402500e-002</PTEMPA1>
#       <PTEMPA2>9.81420800e-007</PTEMPA2>
#       <PTCA0>5.24292100e+005</PTCA0>
#       <PTCA1>2.58422700e-001</PTCA1>
#       <PTCA2>2.12458900e-001</PTCA2>
#       <PTCB0>1.00333600e+002</PTCB0>
#       <PTCB1>-2.13377200e-003</PTCB1>
#       <PTCB2>0.00000000e+000</PTCB2>
#       <Offset>0.000000</Offset>
#     </PressureSensor>
#   </sensor>
# </Sensors>
# datcnv_date = May 19 2025 07:52:54, 7.26.7.129 [datcnv_vars = 4]
# datcnv_in = C:\CE25007_recovery_data\7923_cal_dip_data.hex C:\CE25007_recovery_data\7923_cal_dip_data.xmlcon
# datcnv_skipover = 0
# file_type = ascii
*END*
    15.9094   0.006993      0.897  800511301  0.000e+00
    15.9379   0.006984      0.897  800511311  0.000e+00
    15.9261   0.006975      0.920  800511321  0.000e+00
    15.9645   0.006975      0.905  800511331  0.000e+00
    16.0083   0.006968      0.928  800511341  0.000e+00
    16.0360   0.006965      0.889  800511351  0.000e+00
    16.0490   0.006962      0.905  800511361  0.000e+00
    16.0560   0.006956      0.936  800511371  0.000e+00
    16.0584   0.006953      0.912  800511381  0.000e+00
    16.0579   0.006953      0.896  800511391  0.000e+00
    16.0461   0.006946      0.889  800511401  0.000e+00
    16.0596   0.006946      0.889  800511411  0.000e+00
    16.0724   0.006940      0.912  800511421  0.000e+00
    16.0688   0.006934      0.889  800511431  0.000e+00
    16.0657   0.005944      0.873  800511441  0.000e+00
    16.0574   0.006924      0.889  800511451  0.000e+00
    16.0633   0.006924      0.896  800511461  0.000e+00
    16.0641   0.006921      0.920  800511471  0.000e+00
    16.0681   0.006918      0.928  800511481  0.000e+00
    16.0727   0.006912      0.943  800511491  0.000e+00
    16.0764   0.006908      0.920  800511501  0.000e+00
    16.0811   0.006905      0.896  800511511  0.000e+00
    16.0854   0.006902      0.904  800511521  0.000e+00
    16.0864   0.006899      0.881  800511531  0.000e+00
    16.0799   0.006896      0.951  800511541  0.000e+00
    16.0854   0.006886      0.928  800511551  0.000e+00
    16.0728   0.006886      0.928  800511561  0.000e+00
    16.0763   0.006886      0.912  800511571  0.000e+00
    16.0665   0.006877      0.912  800511581  0.000e+00
    16.0645   0.006874      0.912  800511591  0.000e+00
    16.0614   0.006867      0.904  800511601  0.000e+00
    16.0575   0.006867      0.912  800511611  0.000e+00
    16.0534   0.006864      0.888  800511621  0.000e+00
    16.0557   0.006861      0.896  800511631  0.000e+00
    16.0636   0.006858      0.912  800511641  0.000e+00
    16.0610   0.006848      0.888  800511651  0.000e+00
    16.0496   0.006852      0.896  800511661  0.000e+00
    16.0411   0.006845      0.935  800511671  0.000e+00
    16.0681   0.006842      0.888  800511681  0.000e+00
    16.0669   0.006836      0.888  800511691  0.000e+00
    16.0676   0.006836      0.919  800511701  0.000e+00
    16.0594   0.006830      0.896  800511711  0.000e+00
    16.0508   0.006826      0.896  800511721  0.000e+00
    16.0470   0.006820      0.873  800511731  0.000e+00
    16.0361   0.006820      0.904  800511741  0.000e+00
    16.0366   0.006820      0.904  800511751  0.000e+00
    16.0164   0.006811      0.904  800511761  0.000e+00
    16.0040   0.006811      0.904  800511771  0.000e+00
    16.0078   0.006804      0.896  800511781  0.000e+00
    16.0103   0.006804      0.904  800511791  0.000e+00
    16.0103   0.006801      0.904  800511801  0.000e+00
    16.0171   0.006795      0.864  800511811  0.000e+00
    16.0104   0.006792      0.888  800511821  0.000e+00
    15.9706   0.006789      0.904  800511831  0.000e+00
    15.9793   0.006785      0.888  800511841  0.000e+00
    15.9857   0.006779      0.857  800511851  0.000e+00
    15.9860   0.006776      0.888  800511861  0.000e+00
    15.9779   0.006776      0.857  800511871  0.000e+00
    15.9824   0.006773      0.864  800511881  0.000e+00
    15.9781   0.006766      0.864  800511891  0.000e+00
    15.9856   0.006763      0.872  800511901  0.000e+00
    15.9910   0.006760      0.872  800511911  0.000e+00
    15.9957   0.006757      0.895  800511921  0.000e+00
    15.9931   0.006754      0.872  800511931  0.000e+00
    15.9807   0.006751      0.848  800511941  0.000e+00
    15.9898   0.006748      0.872  800511951  0.000e+00
    16.0116   0.006748      0.841  800511961  0.000e+00
    15.9977   0.006741      0.825  800511971  0.000e+00
    15.9845   0.006741      0.856  800511981  0.000e+00
    15.9740   0.006735      0.856  800511991  0.000e+00
    15.9724   0.006732      0.833  800512001  0.000e+00
    15.9433   0.006732      0.856  800512011  0.000e+00
    15.9429   0.006729      0.825  800512021  0.000e+00
    15.9504   0.006725      0.856  800512031  0.000e+00
    15.9592   0.006722      0.879  800512041  0.000e+00
    15.9587   0.006716      0.903  800512051  0.000e+00
    15.9518   0.006716      0.856  800512061  0.000e+00
    15.9572   0.006713      0.856  800512071  0.000e+00
    15.9462   0.006707      0.903  800512081  0.000e+00
    15.9533   0.006707      0.887  800512091  0.000e+00
    15.9569   0.006703      0.887  800512101  0.000e+00
    15.9544   0.006697      0.856  800512111  0.000e+00
    15.9664   0.006697      0.840  800512121  0.000e+00
    15.9722   0.006691      0.879  800512131  0.000e+00
    15.9754   0.006691      0.863  800512141  0.000e+00
    15.9758   0.006688      0.840  800512151  0.000e+00
    15.9725   0.006688      0.863  800512161  0.000e+00
    15.9753   0.006684      0.871  800512171  0.000e+00
    15.9850   0.006678      0.840  800512181  0.000e+00
    15.9849   0.006681      0.863  800512191  0.000e+00
    15.9945   0.006675      0.863  800512201  0.000e+00
    15.9867   0.006669      0.894  800512211  0.000e+00
    15.9802   0.006675      0.863  800512221  0.000e+00
    15.9810   0.006672      0.863  800512231  0.000e+00
    15.9775   0.006669      0.871  800512241  0.000e+00
    15.9737   0.006669      0.887  800512251  0.000e+00
    15.9725   0.006662      0.894  800512261  0.000e+00
    15.9729   0.006662      0.848  800512271  0.000e+00
    15.9654   0.006656      0.871  800512281  0.000e+00
    15.9646   0.006656      0.894  800512291  0.000e+00
    15.9655   0.006653      0.855  800512301  0.000e+00
    15.9629   0.006647      0.871  800512311  0.000e+00
    15.9383   0.006650      0.848  800512321  0.000e+00
    15.9187   0.006647      0.878  800512331  0.000e+00
    15.9136   0.006643      0.894  800512341  0.000e+00
    15.9219   0.006640      0.894  800512351  0.000e+00
    15.9212   0.006637      0.878  800512361  0.000e+00
    15.9225   0.006637      0.878  800512371  0.000e+00
    15.9212   0.006634      0.871  800512381  0.000e+00
    15.9233   0.006628      0.878  800512391  0.000e+00
    15.9282   0.006628      0.878  800512401  0.000e+00
    15.8999   0.006316      0.878  800512411  0.000e+00
    15.9009   0.006621      0.832  800512421  0.000e+00
    15.8941   0.006618      0.909  800512431  0.000e+00
    15.9036  -0.011836      0.855  800512441  0.000e+00
    15.9022   0.006612      0.886  800512451  0.000e+00
    15.8900   0.006461      0.878  800512461  0.000e+00
    15.8802   0.006609      0.878  800512471  0.000e+00
    15.8823   0.006606      0.886  800512481  0.000e+00
    15.8700   0.006606      0.886  800512491  0.000e+00
    15.8522   0.006602      0.886  800512501  0.000e+00
    15.8348   0.006596      0.902  800512511  0.000e+00
    15.8042   0.006593      0.886  800512521  0.000e+00
    15.8079   0.006593      0.886  800512531  0.000e+00
    15.7951   0.006590      0.886  800512541  0.000e+00
    15.7901   0.006584      0.886  800512551  0.000e+00
    15.7938   0.006580      0.893  800512561  0.000e+00
    15.4533   0.006577      0.886  800512571  0.000e+00
    15.2371   0.006571      0.870  800512581  0.000e+00
    15.0699   0.006568      0.925  800512591  0.000e+00
    14.9833   0.006564      0.893  800512601  0.000e+00
    12.4058   4.215824      1.689  800512611  0.000e+00
    12.3879   4.098526      1.853  800512621  0.000e+00
    12.3553   4.088978      4.638  800512631  0.000e+00
    12.3633   4.084938      7.822  800512641  0.000e+00
    12.3634   4.085400     11.333  800512651  0.000e+00
    12.3541   4.083196     11.559  800512661  0.000e+00
    12.3575   4.081644     11.769  800512671  0.000e+00
    12.3443   4.083436      9.061  800512681  0.000e+00
    12.3470   4.079416      5.277  800512691  0.000e+00
    12.3458   4.078806      2.709  800512701  0.000e+00
    12.3434   4.078849      2.653  800512711  0.000e+00
    12.3439   4.078495      2.808  800512721  0.000e+00
    12.3442   4.078283      5.585  800512731  0.000e+00
    12.3440   4.078887     10.203  800512741  0.000e+00
    12.3429   4.078556     15.305  800512751  0.000e+00
    12.2200   4.069121     20.087  800512761  0.000e+00
    12.1101   4.057588     24.737  800512771  0.000e+00
    11.9742   4.045785     29.503  800512781  0.000e+00
    11.6159   4.020828     36.494  800512791  0.000e+00
    11.3681   3.989226     43.227  800512801  0.000e+00
    11.3230   3.984737     50.241  800512811  0.000e+00
    11.3300   3.984971     57.092  800512821  0.000e+00
    11.3231   3.985128     63.826  800512831  0.000e+00
    11.3293   3.985895     70.724  800512841  0.000e+00
    11.3058   3.984916     77.997  800512851  0.000e+00
    11.2986   3.983930     85.909  800512861  0.000e+00
    11.3091   3.985392     94.229  800512871  0.000e+00
    11.2895   3.984406    102.774  800512881  0.000e+00
    11.2053   3.974857    108.308  800512891  0.000e+00
    11.0999   3.964792    116.168  800512901  0.000e+00
    11.1663   3.971654    126.821  800512911  0.000e+00
    11.1225   3.968092    137.586  800512921  0.000e+00
    11.1021   3.966310    148.352  800512931  0.000e+00
    11.0472   3.961021    157.823  800512941  0.000e+00
    10.9901   3.956147    167.401  800512951  0.000e+00
    10.9681   3.953744    176.827  800512961  0.000e+00
    10.8975   3.947986    186.804  800512971  0.000e+00
    10.8516   3.942769    196.863  800512981  0.000e+00
    10.8137   3.939294    207.251  800512991  0.000e+00
    10.7893   3.937329    217.300  800513001  0.000e+00
    10.7673   3.935252    227.671  800513011  0.000e+00
    10.7490   3.934286    237.545  800513021  0.000e+00
    10.6638   3.926014    247.941  800513031  0.000e+00
    10.5670   3.918879    258.174  800513041  0.000e+00
    10.4727   3.906972    268.454  800513051  0.000e+00
    10.2385   3.881913    278.658  800513061  0.000e+00
    10.2078   3.877106    288.183  800513071  0.000e+00
    10.2140   3.879047    298.535  800513081  0.000e+00
    10.0478   3.863321    308.700  800513091  0.000e+00
    10.0808   3.866825    319.001  800513101  0.000e+00
    10.2382   3.883439    329.021  800513111  0.000e+00
    10.1870   3.881235    339.158  800513121  0.000e+00
    10.2329   3.887003    349.378  800513131  0.000e+00
    10.1706   3.882569    359.915  800513141  0.000e+00
    10.0310   3.867476    369.984  800513151  0.000e+00
     9.9867   3.862891    380.036  800513161  0.000e+00
     9.9636   3.861350    390.223  800513171  0.000e+00
     9.9257   3.857370    400.294  800513181  0.000e+00
     9.8923   3.854798    410.300  800513191  0.000e+00
     9.8123   3.847805    420.137  800513201  0.000e+00
     9.7451   3.841660    430.097  800513211  0.000e+00
     9.7075   3.838698    440.194  800513221  0.000e+00
     9.6548   3.833430    450.221  800513231  0.000e+00
     9.6433   3.832128    460.370  800513241  0.000e+00
     9.6116   3.829293    470.398  800513251  0.000e+00
     9.5735   3.826066    480.426  800513261  0.000e+00
     9.5341   3.822515    490.413  800513271  0.000e+00
     9.4714   3.816732    500.865  800513281  0.000e+00
     9.4320   3.813667    510.689  800513291  0.000e+00
     9.2862   3.799384    520.907  800513301  0.000e+00
     9.1858   3.788937    531.225  800513311  0.000e+00
     9.0951   3.780996    541.064  800513321  0.000e+00
     9.0294   3.773555    551.219  800513331  0.000e+00
     8.9069   3.762486    561.435  800513341  0.000e+00
     8.8240   3.753758    571.516  800513351  0.000e+00
     8.7703   3.748947    581.813  800513361  0.000e+00
     8.6484   3.738454    591.848  800513371  0.000e+00
     8.5424   3.729086    601.460  800513381  0.000e+00
     8.5067   3.725660    611.425  800513391  0.000e+00
     8.4152   3.717772    621.490  800513401  0.000e+00
     8.3637   3.713116    631.832  800513411  0.000e+00
     8.2908   3.706670    641.964  800513421  0.000e+00
     8.2023   3.698239    651.626  800513431  0.000e+00
     8.1203   3.690619    661.622  800513441  0.000e+00
     8.0672   3.686997    671.802  800513451  0.000e+00
     7.9795   3.677558    681.894  800513461  0.000e+00
     7.5664   3.636647    691.957  800513471  0.000e+00
     7.5548   3.637314    701.787  800513481  0.000e+00
     7.4528   3.623074    711.903  800513491  0.000e+00
     7.3917   3.617554    721.973  800513501  0.000e+00
     7.2535   3.603831    732.067  800513511  0.000e+00
     7.1687   3.596464    742.176  800513521  0.000e+00
     7.0729   3.587797    752.154  800513531  0.000e+00
     6.9943   3.580752    762.649  800513541  0.000e+00
     6.9960   3.581052    772.999  800513551  0.000e+00
     6.8874   3.571238    783.096  800513561  0.000e+00
     6.7969   3.562957    793.307  800513571  0.000e+00
     6.7526   3.558822    803.498  800513581  0.000e+00
     6.7502   3.560375    814.137  800513591  0.000e+00
     6.7364   3.558903    824.209  800513601  0.000e+00
     6.6438   3.551183    834.426  800513611  0.000e+00
     6.4937   3.537453    844.690  800513621  0.000e+00
     6.4434   3.531851    854.528  800513631  0.000e+00
     6.3936   3.527055    865.028  800513641  0.000e+00
     6.3636   3.524372    874.753  800513651  0.000e+00
     6.2827   3.517303    884.569  800513661  0.000e+00
     6.2008   3.509446    894.530  800513671  0.000e+00
     6.0719   3.498484    904.233  800513681  0.000e+00
     6.0446   3.494544    914.218  800513691  0.000e+00
     5.9805   3.489102    923.966  800513701  0.000e+00
     5.9398   3.484900    934.117  800513711  0.000e+00
     5.8773   3.479019    943.819  800513721  0.000e+00
     5.8358   3.475208    953.571  800513731  0.000e+00
     5.7727   3.469485    963.441  800513741  0.000e+00
     5.7275   3.465452    973.242  800513751  0.000e+00
     5.6769   3.460652    983.369  800513761  0.000e+00
     5.6078   3.454939    992.982  800513771  0.000e+00
     5.5313   3.447613   1002.804  800513781  0.000e+00
     5.4644   3.441101   1012.983  800513791  0.000e+00
     5.3978   3.435176   1022.786  800513801  0.000e+00
     5.3464   3.429856   1032.869  800513811  0.000e+00
     5.2775   3.423503   1042.885  800513821  0.000e+00
     5.2406   3.420019   1052.309  800513831  0.000e+00
     5.2125   3.417573   1062.771  800513841  0.000e+00
     5.1162   3.409646   1073.000  800513851  0.000e+00
     5.0582   3.403623   1082.877  800513861  0.000e+00
     4.9813   3.396683   1092.919  800513871  0.000e+00
     4.9516   3.393782   1102.959  800513881  0.000e+00
     4.9347   3.392153   1113.143  800513891  0.000e+00
     4.8935   3.388814   1123.679  800513901  0.000e+00
     4.7981   3.379821   1133.956  800513911  0.000e+00
     4.6928   3.370181   1144.239  800513921  0.000e+00
     4.6715   3.367506   1154.397  800513931  0.000e+00
     4.6203   3.363028   1165.010  800513941  0.000e+00
     4.6253   3.363294   1175.196  800513951  0.000e+00
     4.6235   3.363310   1185.335  800513961  0.000e+00
     4.5786   3.359261   1195.641  800513971  0.000e+00
     4.5931   3.360910   1205.569  800513981  0.000e+00
     4.5851   3.361215   1215.476  800513991  0.000e+00
     4.5547   3.359205   1225.853  800514001  0.000e+00
     4.4988   3.354082   1236.067  800514011  0.000e+00
     4.4691   3.351511   1246.070  800514021  0.000e+00
     4.4558   3.350282   1256.187  800514031  0.000e+00
     4.4768   3.353011   1266.002  800514041  0.000e+00
     4.4203   3.347990   1276.476  800514051  0.000e+00
     4.4115   3.347502   1286.292  800514061  0.000e+00
     4.4065   3.347663   1296.506  800514071  0.000e+00
     4.4006   3.347443   1306.607  800514081  0.000e+00
     4.3790   3.346052   1316.659  800514091  0.000e+00
     4.3271   3.341617   1326.475  800514101  0.000e+00
     4.2465   3.334713   1336.530  800514111  0.000e+00
     4.1504   3.325124   1346.748  800514121  0.000e+00
     4.1355   3.323605   1356.779  800514131  0.000e+00
     4.1181   3.322159   1366.621  800514141  0.000e+00
     4.1830   3.329099   1376.559  800514151  0.000e+00
     4.1678   3.328632   1386.709  800514161  0.000e+00
     4.1515   3.327132   1396.954  800514171  0.000e+00
     4.1311   3.325176   1406.752  800514181  0.000e+00
     4.0877   3.322652   1416.290  800514191  0.000e+00
     4.0545   3.319026   1426.822  800514201  0.000e+00
     4.0466   3.318435   1436.762  800514211  0.000e+00
     4.0362   3.317916   1446.633  800514221  0.000e+00
     4.0203   3.316751   1456.809  800514231  0.000e+00
     4.0164   3.316715   1466.517  800514241  0.000e+00
     4.0253   3.318134   1476.506  800514251  0.000e+00
     3.9824   3.315065   1486.190  800514261  0.000e+00
     3.9746   3.314063   1496.441  800514271  0.000e+00
     3.9495   3.312077   1506.031  800514281  0.000e+00
     3.9406   3.311741   1516.189  800514291  0.000e+00
     3.9313   3.311164   1526.158  800514301  0.000e+00
     3.9224   3.310652   1535.867  800514311  0.000e+00
     3.9141   3.310310   1545.790  800514321  0.000e+00
     3.9067   3.309915   1555.951  800514331  0.000e+00
     3.8890   3.308843   1566.134  800514341  0.000e+00
     3.8827   3.308611   1575.847  800514351  0.000e+00
     3.8673   3.307754   1585.985  800514361  0.000e+00
     3.8428   3.305705   1596.361  800514371  0.000e+00
     3.8339   3.305246   1606.972  800514381  0.000e+00
     3.8284   3.305138   1617.348  800514391  0.000e+00
     3.8099   3.303903   1627.559  800514401  0.000e+00
     3.8033   3.303555   1637.700  800514411  0.000e+00
     3.7820   3.302067   1648.338  800514421  0.000e+00
     3.7833   3.302519   1658.953  800514431  0.000e+00
     3.7798   3.302744   1669.285  800514441  0.000e+00
     3.7603   3.301523   1679.382  800514451  0.000e+00
     3.7559   3.301409   1689.855  800514461  0.000e+00
     3.7556   3.301810   1699.954  800514471  0.000e+00
     3.7466   3.301526   1710.690  800514481  0.000e+00
     3.7149   3.299218   1720.954  800514491  0.000e+00
     3.7094   3.298948   1731.361  800514501  0.000e+00
     3.7084   3.299296   1741.485  800514511  0.000e+00
     3.7061   3.299573   1751.845  800514521  0.000e+00
     3.7032   3.299876   1762.088  800514531  0.000e+00
     3.7088   3.300869   1771.882  800514541  0.000e+00
     3.6958   3.300299   1782.292  800514551  0.000e+00
     3.6862   3.299846   1792.347  800514561  0.000e+00
     3.6814   3.299928   1802.048  800514571  0.000e+00
     3.6786   3.300015   1811.868  800514581  0.000e+00
     3.6751   3.300110   1821.854  800514591  0.000e+00
     3.6662   3.299879   1832.220  800514601  0.000e+00
     3.6639   3.299999   1842.065  800514611  0.000e+00
     3.6624   3.300224   1851.840  800514621  0.000e+00
     3.6428   3.299139   1861.805  800514631  0.000e+00
     3.6354   3.298817   1872.102  800514641  0.000e+00
     3.6310   3.298794   1881.974  800514651  0.000e+00
     3.6188   3.298530   1891.846  800514661  0.000e+00
     3.5925   3.296906   1901.955  800514671  0.000e+00
     3.5739   3.295341   1911.970  800514681  0.000e+00
     3.5601   3.294446   1922.175  800514691  0.000e+00
     3.5456   3.293772   1932.026  800514701  0.000e+00
     3.5357   3.292962   1942.327  800514711  0.000e+00
     3.5253   3.292451   1952.392  800514721  0.000e+00
     3.5086   3.291413   1962.339  800514731  0.000e+00
     3.5088   3.291788   1972.808  800514741  0.000e+00
     3.4895   3.290757   1982.993  800514751  0.000e+00
     3.4664   3.289023   1993.085  800514761  0.000e+00
     3.4582   3.288688   2003.342  800514771  0.000e+00
     3.4409   3.287488   2013.813  800514781  0.000e+00
     3.4299   3.286998   2023.978  800514791  0.000e+00
     3.4181   3.286357   2033.881  800514801  0.000e+00
     3.4037   3.285574   2044.070  800514811  0.000e+00
     3.3929   3.284985   2054.189  800514821  0.000e+00
     3.3889   3.284975   2063.881  800514831  0.000e+00
     3.3812   3.284738   2074.214  800514841  0.000e+00
     3.3606   3.283435   2084.169  800514851  0.000e+00
     3.3423   3.282268   2094.361  800514861  0.000e+00
     3.3144   3.280335   2104.269  800514871  0.000e+00
     3.2922   3.278883   2114.604  800514881  0.000e+00
     3.2753   3.277698   2124.561  800514891  0.000e+00
     3.2470   3.275856   2134.376  800514901  0.000e+00
     3.2249   3.274360   2144.334  800514911  0.000e+00
     3.1981   3.272117   2154.482  800514921  0.000e+00
     3.1746   3.270556   2164.750  800514931  0.000e+00
     3.1611   3.269703   2175.018  800514941  0.000e+00
     3.1341   3.267947   2184.978  800514951  0.000e+00
     3.1145   3.266361   2194.868  800514961  0.000e+00
     3.0824   3.264062   2204.925  800514971  0.000e+00
     3.0623   3.262587   2215.053  800514981  0.000e+00
     3.0375   3.260697   2225.229  800514991  0.000e+00
     3.0174   3.259430   2235.287  800515001  0.000e+00
     2.9873   3.257217   2245.298  800515011  0.000e+00
     2.9732   3.256255   2255.595  800515021  0.000e+00
     2.9485   3.254451   2265.584  800515031  0.000e+00
     2.9220   3.252634   2275.336  800515041  0.000e+00
     2.9089   3.251802   2285.564  800515051  0.000e+00
     2.9032   3.251436   2295.981  800515061  0.000e+00
     2.8850   3.250287   2305.854  800515071  0.000e+00
     2.8784   3.249908   2315.656  800515081  0.000e+00
     2.8793   3.250273   2325.743  800515091  0.000e+00
     2.8706   3.249992   2335.760  800515101  0.000e+00
     2.8697   3.250200   2339.225  800515111  0.000e+00
     2.8630   3.249691   2345.730  800515121  0.000e+00
     2.8558   3.249305   2353.990  800515131  0.000e+00
     2.8466   3.248874   2362.133  800515141  0.000e+00
     2.8443   3.248857   2369.873  800515151  0.000e+00
     2.8427   3.249008   2377.969  800515161  0.000e+00
     2.8396   3.249043   2386.564  800515171  0.000e+00
     2.8357   3.249097   2394.542  800515181  0.000e+00
     2.8315   3.248794   2397.890  800515191  0.000e+00
     2.8204   3.248110   2402.687  800515201  0.000e+00
     2.8102   3.247251   2407.864  800515211  0.000e+00
     2.8088   3.247271   2412.542  800515221  0.000e+00
     2.8066   3.247214   2415.059  800515231  0.000e+00
     2.8044   3.247013   2415.059  800515241  0.000e+00
     2.8041   3.246858   2415.557  800515251  0.000e+00
     2.8050   3.246813   2415.415  800515261  0.000e+00
     2.8073   3.246994   2415.201  800515271  0.000e+00
     2.8071   3.246994   2415.153  800515281  0.000e+00
     2.8067   3.247072   2415.391  800515291  0.000e+00
     2.8068   3.246988   2415.366  800515301  0.000e+00
     2.8069   3.247072   2415.295  800515311  0.000e+00
     2.8073   3.247078   2415.366  800515321  0.000e+00
     2.8080   3.247085   2415.153  800515331  0.000e+00
     2.8083   3.247136   2415.294  800515341  0.000e+00
     2.8083   3.247124   2415.579  800515351  0.000e+00
     2.8084   3.247156   2415.484  800515361  0.000e+00
     2.8082   3.247098   2415.484  800515371  0.000e+00
     2.8081   3.247175   2415.223  800515381  0.000e+00
     2.8087   3.247175   2415.484  800515391  0.000e+00
     2.8088   3.247195   2415.555  800515401  0.000e+00
     2.8087   3.247175   2415.388  800515411  0.000e+00
     2.8089   3.247188   2415.459  800515421  0.000e+00
     2.8089   3.247227   2415.816  800515431  0.000e+00
     2.8087   3.247188   2415.578  800515441  0.000e+00
     2.8084   3.247169   2415.340  800515451  0.000e+00
     2.8086   3.247162   2415.554  800515461  0.000e+00
     2.8088   3.247188   2415.293  800515471  0.000e+00
     2.8089   3.247162   2415.150  800515481  0.000e+00
     2.8088   3.247149   2415.198  800515491  0.000e+00
     2.8082   3.247195   2415.720  800515501  0.000e+00
     2.8083   3.247195   2415.934  800515511  0.000e+00
     2.8084   3.247182   2415.673  800515521  0.000e+00
     2.8083   3.247175   2415.363  800515531  0.000e+00
     2.8085   3.247201   2415.126  800515541  0.000e+00
     2.8084   3.247182   2415.316  800515551  0.000e+00
     2.8084   3.247156   2415.506  800515561  0.000e+00
     2.8081   3.247130   2415.886  800515571  0.000e+00
     2.8081   3.247143   2415.031  800515581  0.000e+00
     2.8069   3.247046   2415.102  800515591  0.000e+00
     2.8061   3.246968   2415.791  800515601  0.000e+00
     2.8073   3.247091   2415.339  800515611  0.000e+00
     2.8076   3.247052   2415.126  800515621  0.000e+00
     2.8078   3.247078   2415.838  800515631  0.000e+00
     2.8073   3.247085   2416.099  800515641  0.000e+00
     2.8080   3.247149   2415.599  800515651  0.000e+00
     2.8081   3.247195   2415.339  800515661  0.000e+00
     2.8075   3.247111   2415.909  800515671  0.000e+00
     2.8069   3.247014   2415.766  800515681  0.000e+00
     2.8074   3.247059   2415.909  800515691  0.000e+00
     2.8071   3.247117   2415.172  800515701  0.000e+00
     2.8080   3.247136   2415.647  800515711  0.000e+00
     2.8083   3.247143   2415.932  800515721  0.000e+00
     2.8085   3.247136   2415.647  800515731  0.000e+00
     2.8083   3.247188   2415.979  800515741  0.000e+00
     2.8081   3.247117   2415.885  800515751  0.000e+00
     2.8082   3.247124   2415.575  800515761  0.000e+00
     2.8077   3.247091   2415.220  800515771  0.000e+00
     2.8076   3.247085   2415.742  800515781  0.000e+00
     2.8076   3.247091   2415.909  800515791  0.000e+00
     2.8071   3.247104   2416.098  800515801  0.000e+00
     2.8078   3.247091   2415.647  800515811  0.000e+00
     2.8060   3.246923   2415.290  800515821  0.000e+00
     2.8058   3.246929   2415.647  800515831  0.000e+00
     2.8057   3.246897   2415.884  800515841  0.000e+00
     2.8058   3.246897   2415.528  800515851  0.000e+00
     2.8060   3.246923   2415.670  800515861  0.000e+00
     2.8063   3.246981   2416.169  800515871  0.000e+00
     2.8066   3.246981   2415.647  800515881  0.000e+00
     2.8066   3.247007   2415.694  800515891  0.000e+00
     2.8069   3.247007   2415.765  800515901  0.000e+00
     2.8068   3.247052   2415.837  800515911  0.000e+00
     2.8068   3.247014   2415.717  800515921  0.000e+00
     2.8069   3.247033   2415.765  800515931  0.000e+00
     2.8071   3.247053   2416.240  800515941  0.000e+00
     2.8070   3.247039   2415.884  800515951  0.000e+00
     2.8064   3.247020   2416.287  800515961  0.000e+00
     2.8066   3.247014   2415.813  800515971  0.000e+00
     2.8074   3.247072   2415.432  800515981  0.000e+00
     2.8069   3.247052   2416.050  800515991  0.000e+00
     2.8078   3.247137   2415.931  800516001  0.000e+00
     2.8085   3.247156   2415.979  800516011  0.000e+00
     2.8083   3.247169   2416.050  800516021  0.000e+00
     2.8086   3.247156   2415.527  800516031  0.000e+00
     2.8085   3.247156   2416.050  800516041  0.000e+00
     2.8083   3.247149   2415.385  800516051  0.000e+00
     2.8077   3.247072   2415.812  800516061  0.000e+00
     2.8081   3.247143   2416.525  800516071  0.000e+00
     2.8082   3.247169   2415.503  800516081  0.000e+00
     2.8083   3.247111   2415.598  800516091  0.000e+00
     2.8083   3.247130   2415.693  800516101  0.000e+00
     2.8083   3.247143   2415.907  800516111  0.000e+00
     2.8084   3.247182   2416.501  800516121  0.000e+00
     2.8084   3.247149   2415.336  800516131  0.000e+00
     2.8085   3.247162   2415.931  800516141  0.000e+00
     2.8087   3.247201   2415.788  800516151  0.000e+00
     2.8088   3.247175   2416.002  800516161  0.000e+00
     2.8085   3.247175   2415.813  800516171  0.000e+00
     2.8085   3.247149   2415.741  800516181  0.000e+00
     2.8087   3.247071   2412.510  800516191  0.000e+00
     2.8112   3.247101   2405.339  800516201  0.000e+00
     2.8284   3.248315   2398.310  800516211  0.000e+00
     2.8399   3.248870   2390.380  800516221  0.000e+00
     2.8409   3.248692   2382.378  800516231  0.000e+00
     2.8431   3.248573   2374.494  800516241  0.000e+00
     2.8437   3.248390   2367.039  800516251  0.000e+00
     2.8442   3.248219   2360.178  800516261  0.000e+00
     2.8431   3.248096   2360.036  800516271  0.000e+00
     2.8442   3.248265   2360.416  800516281  0.000e+00
     2.8439   3.248278   2360.107  800516291  0.000e+00
     2.8446   3.248297   2359.822  800516301  0.000e+00
     2.8446   3.248304   2360.605  800516311  0.000e+00
     2.8445   3.248303   2360.297  800516321  0.000e+00
     2.8446   3.248290   2360.108  800516331  0.000e+00
     2.8448   3.248323   2359.989  800516341  0.000e+00
     2.8446   3.248375   2359.918  800516351  0.000e+00
     2.8446   3.248349   2360.725  800516361  0.000e+00
     2.8457   3.248375   2360.131  800516371  0.000e+00
     2.8453   3.248270   2356.808  800516381  0.000e+00
     2.8478   3.248255   2348.950  800516391  0.000e+00
     2.8541   3.248518   2341.472  800516401  0.000e+00
     2.8593   3.248600   2336.202  800516411  0.000e+00
     2.8583   3.248620   2336.249  800516421  0.000e+00
     2.8613   3.248792   2330.434  800516431  0.000e+00
     2.8660   3.248693   2323.266  800516441  0.000e+00
     2.8728   3.249001   2315.600  800516451  0.000e+00
     2.8738   3.248753   2307.934  800516461  0.000e+00
     2.8754   3.248679   2299.461  800516471  0.000e+00
     2.8954   3.249887   2291.820  800516481  0.000e+00
     2.9001   3.250137   2284.275  800516491  0.000e+00
     2.9059   3.250400   2276.372  800516501  0.000e+00
     2.9289   3.251952   2268.566  800516511  0.000e+00
     2.9533   3.253873   2260.499  800516521  0.000e+00
     2.9877   3.256461   2252.384  800516531  0.000e+00
     2.9947   3.256763   2244.863  800516541  0.000e+00
     3.0039   3.257078   2236.726  800516551  0.000e+00
     3.0211   3.258365   2228.921  800516561  0.000e+00
     3.0280   3.258849   2221.165  800516571  0.000e+00
     3.0395   3.259436   2213.456  800516581  0.000e+00
     3.0795   3.262571   2205.605  800516591  0.000e+00
     3.0925   3.263567   2197.944  800516601  0.000e+00
     3.1093   3.264686   2190.141  800516611  0.000e+00
     3.1216   3.265586   2183.003  800516621  0.000e+00
     3.1412   3.266913   2175.960  800516631  0.000e+00
     3.1431   3.267008   2169.273  800516641  0.000e+00
     3.1493   3.267356   2162.088  800516651  0.000e+00
     3.1628   3.267990   2154.311  800516661  0.000e+00
     3.1817   3.269577   2147.174  800516671  0.000e+00
     3.1937   3.270353   2139.990  800516681  0.000e+00
     3.2236   3.272363   2132.000  800516691  0.000e+00
     3.2195   3.272213   2131.028  800516701  0.000e+00
     3.2277   3.272875   2130.601  800516711  0.000e+00
     3.2288   3.273135   2130.767  800516721  0.000e+00
     3.2294   3.273239   2131.099  800516731  0.000e+00
     3.2298   3.273330   2130.673  800516741  0.000e+00
     3.2291   3.273317   2131.052  800516751  0.000e+00
     3.2264   3.273122   2131.289  800516761  0.000e+00
     3.2289   3.273239   2130.862  800516771  0.000e+00
     3.2288   3.273317   2131.289  800516781  0.000e+00
     3.2291   3.273323   2131.123  800516791  0.000e+00
     3.2298   3.273362   2130.816  800516801  0.000e+00
     3.2293   3.273356   2131.029  800516811  0.000e+00
     3.2292   3.273356   2131.029  800516821  0.000e+00
     3.2333   3.273543   2127.378  800516831  0.000e+00
     3.2532   3.274884   2119.507  800516841  0.000e+00
     3.2693   3.275888   2111.827  800516851  0.000e+00
     3.2727   3.275990   2104.360  800516861  0.000e+00
     3.2816   3.276240   2096.254  800516871  0.000e+00
     3.2953   3.277264   2088.574  800516881  0.000e+00
     3.3188   3.279080   2080.705  800516891  0.000e+00
     3.3414   3.280656   2072.766  800516901  0.000e+00
     3.3564   3.281401   2065.277  800516911  0.000e+00
     3.3645   3.281964   2057.694  800516921  0.000e+00
     3.3851   3.283047   2049.661  800516931  0.000e+00
     3.3917   3.283649   2042.173  800516941  0.000e+00
     3.4014   3.284173   2034.306  800516951  0.000e+00
     3.4070   3.284587   2029.852  800516961  0.000e+00
     3.4110   3.284997   2030.089  800516971  0.000e+00
     3.4118   3.285134   2030.160  800516981  0.000e+00
     3.4130   3.285303   2030.373  800516991  0.000e+00
     3.4132   3.285309   2030.136  800517001  0.000e+00
     3.4132   3.285348   2029.828  800517011  0.000e+00
     3.4132   3.285355   2030.255  800517021  0.000e+00
     3.4128   3.285335   2030.207  800517031  0.000e+00
     3.4128   3.285368   2030.350  800517041  0.000e+00
     3.4129   3.285355   2030.184  800517051  0.000e+00
     3.4132   3.285361   2029.781  800517061  0.000e+00
     3.4128   3.285342   2029.994  800517071  0.000e+00
     3.4120   3.285296   2030.350  800517081  0.000e+00
     3.4116   3.285277   2030.161  800517091  0.000e+00
     3.4126   3.285335   2029.378  800517101  0.000e+00
     3.4122   3.285335   2030.397  800517111  0.000e+00
     3.4124   3.285355   2029.971  800517121  0.000e+00
     3.4123   3.285309   2030.208  800517131  0.000e+00
     3.4117   3.285316   2030.042  800517141  0.000e+00
     3.4125   3.285316   2030.113  800517151  0.000e+00
     3.4105   3.285140   2030.540  800517161  0.000e+00
     3.4097   3.285146   2029.616  800517171  0.000e+00
     3.4102   3.285134   2030.492  800517181  0.000e+00
     3.4100   3.285121   2030.421  800517191  0.000e+00
     3.4097   3.285069   2030.303  800517201  0.000e+00
     3.4098   3.285133   2029.758  800517211  0.000e+00
     3.4099   3.285114   2029.829  800517221  0.000e+00
     3.4102   3.285147   2030.279  800517231  0.000e+00
     3.4104   3.285147   2030.492  800517241  0.000e+00
     3.4108   3.285140   2029.948  800517251  0.000e+00
     3.4107   3.285166   2029.640  800517261  0.000e+00
     3.4108   3.285166   2030.374  800517271  0.000e+00
     3.4089   3.285023   2030.564  800517281  0.000e+00
     3.4072   3.284880   2030.303  800517291  0.000e+00
     3.4051   3.284685   2030.303  800517301  0.000e+00
     3.4036   3.284581   2030.137  800517311  0.000e+00
     3.4048   3.284653   2030.279  800517321  0.000e+00
     3.4063   3.284776   2030.753  800517331  0.000e+00
     3.4085   3.284939   2030.185  800517341  0.000e+00
     3.4093   3.285042   2029.782  800517351  0.000e+00
     3.4100   3.285101   2029.948  800517361  0.000e+00
     3.4090   3.285056   2030.161  800517371  0.000e+00
     3.4072   3.284893   2030.303  800517381  0.000e+00
     3.4077   3.284965   2030.161  800517391  0.000e+00
     3.4082   3.284997   2030.374  800517401  0.000e+00
     3.4089   3.285055   2029.261  800517411  0.000e+00
     3.4141   3.285079   2021.632  800517421  0.000e+00
     3.4231   3.285596   2013.813  800517431  0.000e+00
     3.4374   3.286543   2005.877  800517441  0.000e+00
     3.4494   3.287048   1997.870  800517451  0.000e+00
     3.4526   3.287000   1990.385  800517461  0.000e+00
     3.4606   3.287368   1982.449  800517471  0.000e+00
     3.4720   3.288081   1974.277  800517481  0.000e+00
     3.4778   3.288241   1966.461  800517491  0.000e+00
     3.4870   3.288674   1958.622  800517501  0.000e+00
     3.5001   3.289601   1950.380  800517511  0.000e+00
     3.5165   3.290652   1942.731  800517521  0.000e+00
     3.5410   3.292465   1935.083  800517531  0.000e+00
     3.5706   3.294603   1927.197  800517541  0.000e+00
     3.5591   3.293979   1927.032  800517551  0.000e+00
     3.5696   3.294532   1926.274  800517561  0.000e+00
     3.5748   3.295436   1927.079  800517571  0.000e+00
     3.5745   3.295488   1926.653  800517581  0.000e+00
     3.5749   3.295580   1927.268  800517591  0.000e+00
     3.5753   3.295651   1927.292  800517601  0.000e+00
     3.5756   3.295632   1926.795  800517611  0.000e+00
     3.5763   3.295703   1926.463  800517621  0.000e+00
     3.5763   3.295768   1927.339  800517631  0.000e+00
     3.5764   3.295755   1926.582  800517641  0.000e+00
     3.5768   3.295768   1926.795  800517651  0.000e+00
     3.5774   3.295833   1927.079  800517661  0.000e+00
     3.5773   3.295814   1926.558  800517671  0.000e+00
     3.5772   3.295761   1924.806  800517681  0.000e+00
     3.5780   3.295414   1916.921  800517691  0.000e+00
     3.5821   3.295444   1909.084  800517701  0.000e+00
     3.5935   3.296059   1900.750  800517711  0.000e+00
     3.6276   3.298498   1892.677  800517721  0.000e+00
     3.6324   3.298613   1884.581  800517731  0.000e+00
     3.6362   3.298610   1876.674  800517741  0.000e+00
     3.6397   3.298432   1868.319  800517751  0.000e+00
     3.6473   3.298781   1860.342  800517761  0.000e+00
     3.6627   3.299677   1852.602  800517771  0.000e+00
     3.6707   3.300046   1845.573  800517781  0.000e+00
     3.6755   3.300278   1838.686  800517791  0.000e+00
     3.6802   3.300464   1831.562  800517801  0.000e+00
     3.6807   3.300339   1826.025  800517811  0.000e+00
     3.6804   3.300385   1826.167  800517821  0.000e+00
     3.6796   3.300358   1825.930  800517831  0.000e+00
     3.6807   3.300482   1826.214  800517841  0.000e+00
     3.6814   3.300521   1826.001  800517851  0.000e+00
     3.6824   3.300619   1826.049  800517861  0.000e+00
     3.6825   3.300639   1826.143  800517871  0.000e+00
     3.6825   3.300639   1826.096  800517881  0.000e+00
     3.6820   3.300619   1826.001  800517891  0.000e+00
     3.6816   3.300626   1826.711  800517901  0.000e+00
     3.6818   3.300560   1825.977  800517911  0.000e+00
     3.6813   3.300561   1826.451  800517921  0.000e+00
     3.6813   3.300567   1826.380  800517931  0.000e+00
     3.6813   3.300567   1826.593  800517941  0.000e+00
     3.6812   3.300541   1826.072  800517951  0.000e+00
     3.6813   3.300567   1825.930  800517961  0.000e+00
     3.6815   3.300580   1826.285  800517971  0.000e+00
     3.6815   3.300593   1826.569  800517981  0.000e+00
     3.6813   3.300567   1826.167  800517991  0.000e+00
     3.6816   3.300567   1826.072  800518001  0.000e+00
     3.6813   3.300574   1826.545  800518011  0.000e+00
     3.6813   3.300593   1826.143  800518021  0.000e+00
     3.6814   3.300573   1826.214  800518031  0.000e+00
     3.6813   3.300574   1826.687  800518041  0.000e+00
     3.6812   3.300567   1826.356  800518051  0.000e+00
     3.6808   3.300534   1826.309  800518061  0.000e+00
     3.6805   3.300495   1826.427  800518071  0.000e+00
     3.6807   3.300522   1826.711  800518081  0.000e+00
     3.6805   3.300515   1826.190  800518091  0.000e+00
     3.6806   3.300495   1826.356  800518101  0.000e+00
     3.6805   3.300476   1826.143  800518111  0.000e+00
     3.6804   3.300482   1826.593  800518121  0.000e+00
     3.6801   3.300476   1826.096  800518131  0.000e+00
     3.6802   3.300456   1826.451  800518141  0.000e+00
     3.6800   3.300456   1826.687  800518151  0.000e+00
     3.6800   3.300463   1826.663  800518161  0.000e+00
     3.6798   3.300437   1825.977  800518171  0.000e+00
     3.6801   3.300463   1826.616  800518181  0.000e+00
     3.6800   3.300463   1826.356  800518191  0.000e+00
     3.6802   3.300476   1826.308  800518201  0.000e+00
     3.6802   3.300469   1826.545  800518211  0.000e+00
     3.6802   3.300443   1826.356  800518221  0.000e+00
     3.6800   3.300450   1826.522  800518231  0.000e+00
     3.6799   3.300437   1826.593  800518241  0.000e+00
     3.6793   3.300430   1826.451  800518251  0.000e+00
     3.6798   3.300391   1826.190  800518261  0.000e+00
     3.6795   3.300391   1826.569  800518271  0.000e+00
     3.6793   3.300122   1820.014  800518281  0.000e+00
     3.6786   3.299768   1812.584  800518291  0.000e+00
     3.6797   3.299544   1804.917  800518301  0.000e+00
     3.6842   3.299496   1796.967  800518311  0.000e+00
     3.6829   3.299122   1789.065  800518321  0.000e+00
     3.6885   3.299218   1781.470  800518331  0.000e+00
     3.6888   3.298948   1773.829  800518341  0.000e+00
     3.7095   3.300320   1765.668  800518351  0.000e+00
     3.7152   3.300519   1758.240  800518361  0.000e+00
     3.7186   3.300504   1750.670  800518371  0.000e+00
     3.7223   3.300488   1743.125  800518381  0.000e+00
     3.7237   3.300342   1735.249  800518391  0.000e+00
     3.7302   3.300542   1728.012  800518401  0.000e+00
     3.7301   3.300443   1724.275  800518411  0.000e+00
     3.7301   3.300437   1724.748  800518421  0.000e+00
     3.7305   3.300560   1724.606  800518431  0.000e+00
     3.7310   3.300593   1724.772  800518441  0.000e+00
     3.7312   3.300632   1724.488  800518451  0.000e+00
     3.7315   3.300658   1724.582  800518461  0.000e+00
     3.7316   3.300684   1725.245  800518471  0.000e+00
     3.7319   3.300678   1724.724  800518481  0.000e+00
     3.7317   3.300684   1724.630  800518491  0.000e+00
     3.7320   3.300710   1725.032  800518501  0.000e+00
     3.7321   3.300710   1724.890  800518511  0.000e+00
     3.7317   3.300704   1724.322  800518521  0.000e+00
     3.7343   3.300649   1718.031  800518531  0.000e+00
     3.7081   3.297684   1710.014  800518541  0.000e+00
     3.7223   3.298522   1702.069  800518551  0.000e+00
     3.7291   3.299170   1693.746  800518561  0.000e+00
     3.7519   3.300444   1685.824  800518571  0.000e+00
     3.7573   3.300604   1677.904  800518581  0.000e+00
     3.7696   3.301429   1669.889  800518591  0.000e+00
     3.7745   3.301517   1661.851  800518601  0.000e+00
     3.7840   3.301847   1653.813  800518611  0.000e+00
     3.7896   3.302163   1645.941  800518621  0.000e+00
     3.8032   3.303138   1638.661  800518631  0.000e+00
     3.8088   3.303155   1631.380  800518641  0.000e+00
     3.8156   3.303818   1624.242  800518651  0.000e+00
     3.8115   3.303498   1622.446  800518661  0.000e+00
     3.8185   3.303973   1622.021  800518671  0.000e+00
     3.8248   3.304488   1622.304  800518681  0.000e+00
     3.8281   3.304847   1622.919  800518691  0.000e+00
     3.8300   3.305048   1622.517  800518701  0.000e+00
     3.8309   3.305146   1622.493  800518711  0.000e+00
     3.8323   3.305244   1622.422  800518721  0.000e+00
     3.8320   3.305264   1622.635  800518731  0.000e+00
     3.8319   3.305244   1622.304  800518741  0.000e+00
     3.8317   3.305270   1622.777  800518751  0.000e+00
     3.8318   3.305283   1622.162  800518761  0.000e+00
     3.8317   3.305250   1622.587  800518771  0.000e+00
     3.8313   3.305231   1622.706  800518781  0.000e+00
     3.8319   3.305270   1622.280  800518791  0.000e+00
     3.8315   3.305244   1622.540  800518801  0.000e+00
     3.8312   3.305244   1622.351  800518811  0.000e+00
     3.8312   3.305231   1622.918  800518821  0.000e+00
     3.8313   3.305289   1622.209  800518831  0.000e+00
     3.8317   3.305263   1622.540  800518841  0.000e+00
     3.8316   3.305257   1622.753  800518851  0.000e+00
     3.8317   3.305263   1622.067  800518861  0.000e+00
     3.8316   3.305263   1622.351  800518871  0.000e+00
     3.8315   3.305283   1622.895  800518881  0.000e+00
     3.8316   3.305263   1622.422  800518891  0.000e+00
     3.8313   3.305263   1622.422  800518901  0.000e+00
     3.8320   3.305283   1622.516  800518911  0.000e+00
     3.8317   3.305296   1622.965  800518921  0.000e+00
     3.8320   3.305309   1622.469  800518931  0.000e+00
     3.8323   3.305355   1622.020  800518941  0.000e+00
     3.8327   3.305387   1622.752  800518951  0.000e+00
     3.8329   3.305348   1622.706  800518961  0.000e+00
     3.8328   3.305420   1622.422  800518971  0.000e+00
     3.8329   3.305413   1622.327  800518981  0.000e+00
     3.8334   3.305446   1622.280  800518991  0.000e+00
     3.8334   3.305440   1622.823  800519001  0.000e+00
     3.8338   3.305472   1622.398  800519011  0.000e+00
     3.8339   3.305492   1622.729  800519021  0.000e+00
     3.8344   3.305531   1622.540  800519031  0.000e+00
     3.8348   3.305576   1622.280  800519041  0.000e+00
     3.8357   3.305563   1622.303  800519051  0.000e+00
     3.8348   3.305583   1622.918  800519061  0.000e+00
     3.8352   3.305648   1622.138  800519071  0.000e+00
     3.8417   3.306258   1615.071  800519081  0.000e+00
     3.8529   3.306464   1606.776  800519091  0.000e+00
     3.8614   3.306976   1599.048  800519101  0.000e+00
     3.8728   3.307788   1590.847  800519111  0.000e+00
     3.8925   3.309259   1582.482  800519121  0.000e+00
     3.9044   3.309758   1573.999  800519131  0.000e+00
     3.9165   3.310694   1566.226  800519141  0.000e+00
     3.9291   3.311507   1558.949  800519151  0.000e+00
     3.9366   3.311792   1551.200  800519161  0.000e+00
     3.9413   3.312070   1543.616  800519171  0.000e+00
     3.9466   3.312328   1536.246  800519181  0.000e+00
     3.9563   3.312893   1528.758  800519191  0.000e+00
     3.9616   3.312949   1521.175  800519201  0.000e+00
     3.9609   3.313073   1520.442  800519211  0.000e+00
     3.9621   3.313255   1520.089  800519221  0.000e+00
     3.9616   3.313242   1519.994  800519231  0.000e+00
     3.9625   3.313340   1520.349  800519241  0.000e+00
     3.9631   3.313379   1520.348  800519251  0.000e+00
     3.9631   3.313393   1520.372  800519261  0.000e+00
     3.9632   3.313412   1519.970  800519271  0.000e+00
     3.9635   3.313451   1520.679  800519281  0.000e+00
     3.9629   3.313419   1520.301  800519291  0.000e+00
     3.9631   3.313425   1520.419  800519301  0.000e+00
     3.9627   3.313287   1517.726  800519311  0.000e+00
     3.9648   3.313494   1509.766  800519321  0.000e+00
     3.9788   3.314058   1501.807  800519331  0.000e+00
     3.9897   3.314793   1494.012  800519341  0.000e+00
     3.9993   3.315377   1485.959  800519351  0.000e+00
     4.0199   3.316869   1478.119  800519361  0.000e+00
     4.0330   3.317826   1470.327  800519371  0.000e+00
     4.0468   3.318613   1462.393  800519381  0.000e+00
     4.0607   3.319648   1454.223  800519391  0.000e+00
     4.0673   3.320115   1446.384  800519401  0.000e+00
     4.0819   3.321236   1438.687  800519411  0.000e+00
     4.0834   3.320868   1431.723  800519421  0.000e+00
     4.0922   3.321721   1424.475  800519431  0.000e+00
     4.1533   3.326636   1417.488  800519441  0.000e+00
     4.1854   3.329469   1410.052  800519451  0.000e+00
     4.1973   3.329799   1402.286  800519461  0.000e+00
     4.1555   3.326367   1394.757  800519471  0.000e+00
     4.1497   3.325365   1387.227  800519481  0.000e+00
     4.1588   3.325800   1379.557  800519491  0.000e+00
     4.1764   3.327039   1372.264  800519501  0.000e+00
     4.1824   3.327567   1367.804  800519511  0.000e+00
     4.1776   3.327057   1368.347  800519521  0.000e+00
     4.1800   3.327286   1368.252  800519531  0.000e+00
     4.1803   3.327299   1367.851  800519541  0.000e+00
     4.1827   3.327554   1368.535  800519551  0.000e+00
     4.1862   3.327802   1368.299  800519561  0.000e+00
     4.1889   3.328103   1368.110  800519571  0.000e+00
     4.1880   3.328312   1367.851  800519581  0.000e+00
     4.1902   3.328312   1368.629  800519591  0.000e+00
     4.1917   3.328384   1368.134  800519601  0.000e+00
     4.1923   3.328475   1368.275  800519611  0.000e+00
     4.1930   3.328481   1365.585  800519621  0.000e+00
     4.2037   3.329275   1357.726  800519631  0.000e+00
     4.2459   3.333959   1349.845  800519641  0.000e+00
     4.3341   3.341478   1341.704  800519651  0.000e+00
     4.3833   3.345940   1333.871  800519661  0.000e+00
     4.4136   3.348550   1326.581  800519671  0.000e+00
     4.4208   3.349025   1318.512  800519681  0.000e+00
     4.4327   3.349291   1310.113  800519691  0.000e+00
     4.4476   3.350395   1302.493  800519701  0.000e+00
     4.4372   3.349155   1294.992  800519711  0.000e+00
     4.3984   3.345008   1286.877  800519721  0.000e+00
     4.4037   3.345686   1278.858  800519731  0.000e+00
     4.4403   3.348126   1271.028  800519741  0.000e+00
     4.4586   3.350278   1263.739  800519751  0.000e+00
     4.5034   3.353754   1255.391  800519761  0.000e+00
     4.5157   3.355095   1247.986  800519771  0.000e+00
     4.5485   3.357269   1240.535  800519781  0.000e+00
     4.5655   3.359129   1233.225  800519791  0.000e+00
     4.5807   3.360156   1225.725  800519801  0.000e+00
     4.5892   3.360835   1218.228  800519811  0.000e+00
     4.5834   3.360317   1217.024  800519821  0.000e+00
     4.5728   3.359254   1216.506  800519831  0.000e+00
     4.5721   3.359228   1217.213  800519841  0.000e+00
     4.5711   3.359149   1216.930  800519851  0.000e+00
     4.5719   3.359287   1216.883  800519861  0.000e+00
     4.5761   3.359615   1217.070  800519871  0.000e+00
     4.5757   3.359602   1216.882  800519881  0.000e+00
     4.5755   3.359517   1216.952  800519891  0.000e+00
     4.5732   3.359379   1216.976  800519901  0.000e+00
     4.5728   3.359320   1217.188  800519911  0.000e+00
     4.5725   3.359300   1216.599  800519921  0.000e+00
     4.5767   3.359718   1212.118  800519931  0.000e+00
     4.5787   3.358883   1204.126  800519941  0.000e+00
     4.5918   3.360408   1196.134  800519951  0.000e+00
     4.6268   3.360884   1187.859  800519961  0.000e+00
     4.6573   3.366084   1179.704  800519971  0.000e+00
     4.7228   3.371727   1171.806  800519981  0.000e+00
     4.7630   3.375192   1163.769  800519991  0.000e+00
     4.8243   3.381221   1155.072  800520001  0.000e+00
     4.9073   3.389183   1146.916  800520011  0.000e+00
     4.9778   3.395499   1139.988  800520021  0.000e+00
     4.9826   3.395846   1132.800  800520031  0.000e+00
     5.0646   3.403063   1125.424  800520041  0.000e+00
     5.0756   3.404379   1118.072  800520051  0.000e+00
     5.0767   3.404695   1115.267  800520061  0.000e+00
     5.0792   3.405182   1115.173  800520071  0.000e+00
     5.0885   3.405848   1115.550  800520081  0.000e+00
     5.0909   3.406323   1115.242  800520091  0.000e+00
     5.0925   3.406534   1114.889  800520101  0.000e+00
     5.0915   3.406613   1115.690  800520111  0.000e+00
     5.0870   3.406191   1115.454  800520121  0.000e+00
     5.0861   3.405921   1115.170  800520131  0.000e+00
     5.0852   3.405934   1115.053  800520141  0.000e+00
     5.0853   3.406092   1115.312  800520151  0.000e+00
     5.0862   3.406000   1115.498  800520161  0.000e+00
     5.0864   3.406012   1112.083  800520171  0.000e+00
     5.1055   3.407545   1103.718  800520181  0.000e+00
     5.1411   3.410306   1095.706  800520191  0.000e+00
     5.1765   3.414149   1087.082  800520201  0.000e+00
     5.2460   3.419394   1079.025  800520211  0.000e+00
     5.3011   3.424390   1070.663  800520221  0.000e+00
     5.3144   3.425352   1062.111  800520231  0.000e+00
     5.3620   3.429916   1053.866  800520241  0.000e+00
     5.4164   3.435203   1045.645  800520251  0.000e+00
     5.4868   3.442520   1038.932  800520261  0.000e+00
     5.5351   3.445059   1031.514  800520271  0.000e+00
     5.5576   3.447580   1024.378  800520281  0.000e+00
     5.5937   3.450983   1016.866  800520291  0.000e+00
     5.6243   3.454434   1010.131  800520301  0.000e+00
     5.6944   3.460147   1002.594  800520311  0.000e+00
     5.7189   3.463249    994.895  800520321  0.000e+00
     5.7440   3.464660    987.288  800520331  0.000e+00
     5.7975   3.470387    979.164  800520341  0.000e+00
     5.8323   3.473061    971.631  800520351  0.000e+00
     5.8809   3.477371    964.213  800520361  0.000e+00
     5.9271   3.482041    956.445  800520371  0.000e+00
     5.9732   3.486089    948.842  800520381  0.000e+00
     5.9719   3.486747    946.298  800520391  0.000e+00
     5.9763   3.487565    946.132  800520401  0.000e+00
     5.9807   3.487832    946.389  800520411  0.000e+00
     5.9888   3.488823    947.026  800520421  0.000e+00
     5.9914   3.489009    946.248  800520431  0.000e+00
     5.9966   3.489662    945.752  800520441  0.000e+00
     5.9984   3.489702    946.268  800520451  0.000e+00
     5.9997   3.490034    946.174  800520461  0.000e+00
     5.9959   3.489728    946.386  800520471  0.000e+00
     5.9930   3.489436    946.620  800520481  0.000e+00
     5.9955   3.489555    946.100  800520491  0.000e+00
     5.9962   3.489895    946.147  800520501  0.000e+00
     6.0019   3.490053    943.627  800520511  0.000e+00
     6.0524   3.494312    936.283  800520521  0.000e+00
     6.0655   3.495101    928.444  800520531  0.000e+00
     6.1453   3.502607    920.818  800520541  0.000e+00
     6.2265   3.509772    913.238  800520551  0.000e+00
     6.2593   3.512678    905.778  800520561  0.000e+00
     6.2978   3.517054    897.775  800520571  0.000e+00
     6.3566   3.522186    890.055  800520581  0.000e+00
     6.4238   3.527509    882.808  800520591  0.000e+00
     6.4488   3.530080    875.182  800520601  0.000e+00
     6.5423   3.537742    867.232  800520611  0.000e+00
     6.5534   3.539968    862.052  800520621  0.000e+00
     6.5499   3.540671    862.170  800520631  0.000e+00
     6.5736   3.542325    862.991  800520641  0.000e+00
     6.5759   3.543202    862.215  800520651  0.000e+00
     6.5795   3.543530    862.331  800520661  0.000e+00
     6.5769   3.543563    862.048  800520671  0.000e+00
     6.5700   3.543276    862.870  800520681  0.000e+00
     6.5703   3.543276    862.587  800520691  0.000e+00
     6.5707   3.543088    862.209  800520701  0.000e+00
     6.5697   3.543001    862.536  800520711  0.000e+00
     6.5757   3.543430    862.489  800520721  0.000e+00
     6.6238   3.548591    856.020  800520731  0.000e+00
     6.7022   3.554110    847.501  800520741  0.000e+00
     6.5951   3.542196    839.548  800520751  0.000e+00
     6.7384   3.558449    831.103  800520761  0.000e+00
     6.7709   3.558627    822.422  800520771  0.000e+00
     6.8505   3.566119    815.201  800520781  0.000e+00
     6.8979   3.569285    807.766  800520791  0.000e+00
     6.9961   3.579057    800.570  800520801  0.000e+00
     7.0121   3.579734    792.971  800520811  0.000e+00
     7.0314   3.581896    785.373  800520821  0.000e+00
     7.1243   3.589770    777.966  800520831  0.000e+00
     7.1757   3.595127    771.027  800520841  0.000e+00
     7.2401   3.599913    763.432  800520851  0.000e+00
     7.2707   3.602336    755.720  800520861  0.000e+00
     7.3207   3.607928    748.145  800520871  0.000e+00
     7.3959   3.614307    741.304  800520881  0.000e+00
     7.4225   3.615647    733.285  800520891  0.000e+00
     7.4797   3.621883    725.786  800520901  0.000e+00
     7.7733   3.656863    718.167  800520911  0.000e+00
     7.9642   3.670096    710.410  800520921  0.000e+00
     7.9642   3.672146    709.186  800520931  0.000e+00
     7.9910   3.676460    709.653  800520941  0.000e+00
     7.9917   3.677051    709.674  800520951  0.000e+00
     7.9870   3.676195    709.275  800520961  0.000e+00
     7.9865   3.677166    709.414  800520971  0.000e+00
     7.9865   3.676473    709.364  800520981  0.000e+00
     7.9889   3.677540    709.385  800520991  0.000e+00
     7.9910   3.677397    709.453  800521001  0.000e+00
     7.9912   3.677785    709.524  800521011  0.000e+00
     7.9926   3.677846    709.589  800521021  0.000e+00
     7.9935   3.677975    709.070  800521031  0.000e+00
     7.9946   3.678050    709.302  800521041  0.000e+00
     7.9938   3.677907    709.443  800521051  0.000e+00
     7.9939   3.678206    709.206  800521061  0.000e+00
     7.9954   3.678213    709.415  800521071  0.000e+00
     7.9953   3.678206    709.438  800521081  0.000e+00
     7.9951   3.678192    709.694  800521091  0.000e+00
     7.9946   3.678226    708.822  800521101  0.000e+00
     7.9955   3.678281    709.381  800521111  0.000e+00
     7.9964   3.678288    709.686  800521121  0.000e+00
     7.9958   3.678288    709.616  800521131  0.000e+00
     7.9968   3.678471    709.352  800521141  0.000e+00
     7.9979   3.678484    709.117  800521151  0.000e+00
     7.9981   3.678559    709.231  800521161  0.000e+00
     7.9980   3.678552    709.111  800521171  0.000e+00
     7.9992   3.678546    709.417  800521181  0.000e+00
     7.9979   3.678245    705.912  800521191  0.000e+00
     8.1156   3.688767    698.082  800521201  0.000e+00
     8.1193   3.689016    690.323  800521211  0.000e+00
     8.1862   3.694560    683.178  800521221  0.000e+00
     8.1685   3.694083    683.131  800521231  0.000e+00
     8.1514   3.691688    683.528  800521241  0.000e+00
     8.1417   3.692232    683.481  800521251  0.000e+00
     8.1510   3.692355    683.546  800521261  0.000e+00
     8.1546   3.693253    683.358  800521271  0.000e+00
     8.1591   3.693437    682.982  800521281  0.000e+00
     8.1622   3.693907    683.499  800521291  0.000e+00
     8.1658   3.694118    683.734  800521301  0.000e+00
     8.1734   3.694430    683.140  800521311  0.000e+00
     8.1757   3.695418    682.999  800521321  0.000e+00
     8.2294   3.699316    675.761  800521331  0.000e+00
     8.2881   3.705398    668.026  800521341  0.000e+00
     8.3535   3.710582    660.295  800521351  0.000e+00
     8.3915   3.713525    652.303  800521361  0.000e+00
     8.4737   3.721213    644.455  800521371  0.000e+00
     8.5347   3.725976    636.463  800521381  0.000e+00
     8.5984   3.731507    628.592  800521391  0.000e+00
     8.7026   3.739565    621.071  800521401  0.000e+00
     8.7642   3.746083    613.013  800521411  0.000e+00
     8.7851   3.748470    607.748  800521421  0.000e+00
     8.7748   3.748416    607.701  800521431  0.000e+00
     8.7797   3.748402    607.936  800521441  0.000e+00
     8.7905   3.749874    608.426  800521451  0.000e+00
     8.7898   3.749408    607.698  800521461  0.000e+00
     8.7898   3.750093    608.144  800521471  0.000e+00
     8.7905   3.750107    607.974  800521481  0.000e+00
     8.7902   3.750121    608.115  800521491  0.000e+00
     8.7910   3.750004    607.759  800521501  0.000e+00
     8.7920   3.750271    608.346  800521511  0.000e+00
     8.7912   3.750299    608.088  800521521  0.000e+00
     8.7984   3.750762    602.702  800521531  0.000e+00
     8.8501   3.755911    595.091  800521541  0.000e+00
     8.9847   3.768476    587.011  800521551  0.000e+00
     9.0634   3.775281    579.092  800521561  0.000e+00
     9.1041   3.779158    571.365  800521571  0.000e+00
     9.1413   3.782776    563.377  800521581  0.000e+00
     9.2017   3.787770    555.040  800521591  0.000e+00
     9.2452   3.792443    547.639  800521601  0.000e+00
     9.3474   3.802371    539.863  800521611  0.000e+00
     9.4152   3.808326    532.091  800521621  0.000e+00
     9.4446   3.811852    525.044  800521631  0.000e+00
     9.4676   3.813718    518.282  800521641  0.000e+00
     9.4665   3.813632    510.977  800521651  0.000e+00
     9.4516   3.812196    504.028  800521661  0.000e+00
     9.5179   3.818309    496.488  800521671  0.000e+00
     9.5647   3.822445    488.715  800521681  0.000e+00
     9.5798   3.824326    481.340  800521691  0.000e+00
     9.6048   3.826684    473.896  800521701  0.000e+00
     9.6521   3.830914    466.409  800521711  0.000e+00
     9.6691   3.832680    459.273  800521721  0.000e+00
     9.6680   3.832845    457.956  800521731  0.000e+00
     9.6772   3.833784    457.764  800521741  0.000e+00
     9.6776   3.833833    457.928  800521751  0.000e+00
     9.6774   3.833992    457.995  800521761  0.000e+00
     9.6764   3.833722    457.827  800521771  0.000e+00
     9.6765   3.834033    458.058  800521781  0.000e+00
     9.6765   3.834075    458.125  800521791  0.000e+00
     9.6757   3.833895    457.961  800521801  0.000e+00
     9.6740   3.833833    457.797  800521811  0.000e+00
     9.6758   3.833957    458.051  800521821  0.000e+00
     9.6749   3.833902    458.118  800521831  0.000e+00
     9.6747   3.833937    458.349  800521841  0.000e+00
     9.6729   3.833798    457.547  800521851  0.000e+00
     9.6728   3.833798    457.970  800521861  0.000e+00
     9.6732   3.833812    458.157  800521871  0.000e+00
     9.6741   3.833792    458.271  800521881  0.000e+00
     9.6727   3.833743    457.868  800521891  0.000e+00
     9.6737   3.833874    457.798  800521901  0.000e+00
     9.6737   3.833805    457.911  800521911  0.000e+00
     9.6744   3.833792    458.310  800521921  0.000e+00
     9.6742   3.833937    458.236  800521931  0.000e+00
     9.6742   3.833881    457.767  800521941  0.000e+00
     9.6742   3.833833    457.833  800521951  0.000e+00
     9.6728   3.833805    458.373  800521961  0.000e+00
     9.6717   3.833557    458.299  800521971  0.000e+00
     9.6703   3.833584    457.782  800521981  0.000e+00
     9.6711   3.833563    457.966  800521991  0.000e+00
     9.6692   3.833405    458.365  800522001  0.000e+00
     9.6700   3.833439    458.412  800522011  0.000e+00
     9.6704   3.833563    457.826  800522021  0.000e+00
     9.6699   3.833598    457.892  800522031  0.000e+00
     9.6684   3.833301    458.545  800522041  0.000e+00
     9.6680   3.832859    458.311  800522051  0.000e+00
     9.6683   3.833253    458.123  800522061  0.000e+00
     9.6693   3.833246    458.170  800522071  0.000e+00
     9.6689   3.833356    458.260  800522081  0.000e+00
     9.6700   3.833101    458.401  800522091  0.000e+00
     9.6679   3.833301    458.189  800522101  0.000e+00
     9.6687   3.833163    458.354  800522111  0.000e+00
     9.6675   3.833211    458.049  800522121  0.000e+00
     9.6686   3.833253    458.162  800522131  0.000e+00
     9.6675   3.833280    458.068  800522141  0.000e+00
     9.6665   3.833197    458.232  800522151  0.000e+00
     9.6667   3.833101    457.974  800522161  0.000e+00
     9.6665   3.833080    458.537  800522171  0.000e+00
     9.6669   3.833184    457.880  800522181  0.000e+00
     9.6683   3.833197    458.111  800522191  0.000e+00
     9.6669   3.833204    458.130  800522201  0.000e+00
     9.6675   3.833239    458.342  800522211  0.000e+00
     9.6676   3.833197    458.177  800522221  0.000e+00
     9.6656   3.832983    458.389  800522231  0.000e+00
     9.6673   3.833211    457.966  800522241  0.000e+00
     9.6671   3.833191    458.295  800522251  0.000e+00
     9.6675   3.833198    458.389  800522261  0.000e+00
     9.6680   3.833156    458.201  800522271  0.000e+00
     9.6809   3.834362    450.616  800522281  0.000e+00
     9.7549   3.841160    442.379  800522291  0.000e+00
     9.7973   3.844739    434.517  800522301  0.000e+00
     9.8788   3.852083    426.304  800522311  0.000e+00
     9.9365   3.857315    418.161  800522321  0.000e+00
     9.9840   3.861190    410.089  800522331  0.000e+00
    10.0358   3.867730    403.046  800522341  0.000e+00
    10.0868   3.870251    395.750  800522351  0.000e+00
    10.0684   3.869230    388.970  800522361  0.000e+00
    10.0823   3.870690    381.678  800522371  0.000e+00
    10.0713   3.868537    373.955  800522381  0.000e+00
    10.0858   3.873577    366.918  800522391  0.000e+00
    10.2458   3.886194    359.248  800522401  0.000e+00
    10.2456   3.887081    355.373  800522411  0.000e+00
    10.2378   3.886755    355.636  800522421  0.000e+00
    10.2399   3.886818    355.510  800522431  0.000e+00
    10.2369   3.886484    355.467  800522441  0.000e+00
    10.2260   3.885623    355.979  800522451  0.000e+00
    10.2257   3.885637    355.885  800522461  0.000e+00
    10.2258   3.885804    355.670  800522471  0.000e+00
    10.2267   3.885838    355.299  800522481  0.000e+00
    10.2261   3.886123    355.600  800522491  0.000e+00
    10.2257   3.885963    355.478  800522501  0.000e+00
    10.2270   3.885929    355.900  800522511  0.000e+00
    10.2302   3.886185    353.602  800522521  0.000e+00
    10.2508   3.887529    345.154  800522531  0.000e+00
    10.2007   3.881560    337.105  800522541  0.000e+00
    10.0402   3.863433    328.830  800522551  0.000e+00
    10.0592   3.864289    320.974  800522561  0.000e+00
    10.0980   3.867315    312.907  800522571  0.000e+00
    10.1383   3.869066    306.032  800522581  0.000e+00
    10.1266   3.868151    304.743  800522591  0.000e+00
    10.1294   3.868747    304.926  800522601  0.000e+00
    10.1318   3.868560    304.719  800522611  0.000e+00
    10.1358   3.869017    304.945  800522621  0.000e+00
    10.1373   3.869239    304.785  800522631  0.000e+00
    10.1379   3.869329    305.062  800522641  0.000e+00
    10.1396   3.869489    304.523  800522651  0.000e+00
    10.1415   3.869614    304.945  800522661  0.000e+00
    10.1406   3.869551    304.992  800522671  0.000e+00
    10.1407   3.869586    304.495  800522681  0.000e+00
    10.1398   3.869091    297.559  800522691  0.000e+00
    10.2453   3.878481    289.704  800522701  0.000e+00
    10.3466   3.888248    281.517  800522711  0.000e+00
    10.4823   3.902936    273.452  800522721  0.000e+00
    10.5637   3.912798    265.177  800522731  0.000e+00
    10.6638   3.922900    256.878  800522741  0.000e+00
    10.7059   3.928149    250.193  800522751  0.000e+00
    10.7583   3.931928    242.744  800522761  0.000e+00
    10.8044   3.936330    235.590  800522771  0.000e+00
    10.8316   3.938995    228.160  800522781  0.000e+00
    10.8494   3.941563    220.820  800522791  0.000e+00
    10.8849   3.943991    213.184  800522801  0.000e+00
    10.9439   3.949495    204.931  800522811  0.000e+00
    10.9518   3.952276    197.760  800522821  0.000e+00
    11.0049   3.955008    189.863  800522831  0.000e+00
    11.0448   3.959861    182.127  800522841  0.000e+00
    11.0637   3.961223    174.882  800522851  0.000e+00
    11.0845   3.963593    166.757  800522861  0.000e+00
    11.1160   3.966055    158.997  800522871  0.000e+00
    11.1377   3.968588    151.730  800522881  0.000e+00
    11.1933   3.974821    143.812  800522891  0.000e+00
    11.2768   3.982139    136.148  800522901  0.000e+00
    11.3194   3.986226    128.488  800522911  0.000e+00
    11.3093   3.985136    120.825  800522921  0.000e+00
    11.3075   3.985013    112.744  800522931  0.000e+00
    11.3046   3.984449    105.577  800522941  0.000e+00
    11.2812   3.981689     97.727  800522951  0.000e+00
    11.3082   3.983391     90.393  800522961  0.000e+00
    11.2850   3.980968     82.801  800522971  0.000e+00
    11.3107   3.982628     75.799  800522981  0.000e+00
    11.3138   3.981481     68.981  800522991  0.000e+00
    11.3252   3.982047     61.601  800523001  0.000e+00
    11.3337   3.982184     54.062  800523011  0.000e+00
    11.3889   3.987514     46.851  800523021  0.000e+00
    11.4540   3.991800     38.909  800523031  0.000e+00
    11.5846   4.003010     31.367  800523041  0.000e+00
    11.6281   4.009472     31.343  800523051  0.000e+00
    11.6987   4.013968     30.875  800523061  0.000e+00
    11.6887   4.013764     31.315  800523071  0.000e+00
    11.6872   4.014067     31.450  800523081  0.000e+00
    11.6738   4.012159     30.931  800523091  0.000e+00
    11.6756   4.013461     31.282  800523101  0.000e+00
    11.6498   4.011006     31.464  800523111  0.000e+00
    11.6659   4.012906     31.487  800523121  0.000e+00
    11.6638   4.013630     30.944  800523131  0.000e+00
    11.7537   4.021873     29.165  800523141  0.000e+00
    12.0116   4.044040     27.451  800523151  0.000e+00
    12.0926   4.049843     25.157  800523161  0.000e+00
    12.1060   4.053460     23.279  800523171  0.000e+00
    12.1347   4.055974     20.938  800523181  0.000e+00
    12.2087   4.062668     18.920  800523191  0.000e+00
    12.2650   4.067307     14.421  800523201  0.000e+00
    12.3490   4.075947      7.680  800523211  0.000e+00
    12.3571   4.078609      5.821  800523221  0.000e+00
    12.3587   4.078212      5.259  800523231  0.000e+00
    12.3585   4.079154      5.680  800523241  0.000e+00
    12.3579   4.078899      5.628  800523251  0.000e+00
    12.3579   4.079183      5.787  800523261  0.000e+00
    12.3574   4.079133      5.665  800523271  0.000e+00
    12.3593   4.079686      5.618  800523281  0.000e+00
    12.3559   4.079594      5.472  800523291  0.000e+00
    12.3608   4.079820      5.491  800523301  0.000e+00
    12.3617   4.079870      5.532  800523311  0.000e+00
    12.3775   4.081788      1.366  800523321  0.000e+00
    12.4532   0.815652      0.893  800523331  0.000e+00
    12.6081   0.264352      0.911  800523341  0.000e+00
    12.7026   0.107582      0.911  800523351  0.000e+00
    12.8277   0.066456      0.882  800523361  0.000e+00
    12.8962   0.050741      0.900  800523371  0.000e+00
    12.9110   0.060207      0.848  800523381  0.000e+00
    12.8599   0.061311      0.848  800523391  0.000e+00
    12.8411   0.046458      0.848  800523401  0.000e+00
    12.7799   0.040155      0.837  800523411  0.000e+00
    12.8155   0.035776      0.837  800523421  0.000e+00
    12.8201   0.033677      0.832  800523431  0.000e+00
    12.8690   0.033121      0.832  800523441  0.000e+00
    12.9039   0.032160      0.844  800523451  0.000e+00
    12.8747   0.031770      0.839  800523461  0.000e+00
    12.8888   0.030877      0.862  800523471  0.000e+00
    12.8744   0.030523      0.839  800523481  0.000e+00
    12.8756   0.029722      0.857  800523491  0.000e+00
    12.9150   0.029126      0.875  800523501  0.000e+00
    12.9085   0.028820      0.846  800523511  0.000e+00
    12.8949   0.028059      0.846  800523521  0.000e+00
    12.8884   0.027730      0.887  800523531  0.000e+00
    12.9084   0.027402      0.887  800523541  0.000e+00
    12.9124   0.027215      0.882  800523551  0.000e+00
    12.8922   0.026660      0.905  800523561  0.000e+00
    12.9732   0.026676      0.905  800523571  0.000e+00
    12.9319   0.026928      0.923  800523581  0.000e+00
    12.9548   0.026906      0.894  800523591  0.000e+00
    12.9353   0.027237      0.899  800523601  0.000e+00
    12.9607   0.027689      0.917  800523611  0.000e+00
    12.9586   0.027460      0.964  800523621  0.000e+00
    12.9813   0.027218      0.912  800523631  0.000e+00
    12.9880   0.027348      0.882  800523641  0.000e+00
    13.0163   0.027492      0.953  800523651  0.000e+00
    13.0131   0.027613      0.953  800523661  0.000e+00
    13.0198   0.027699      0.970  800523671  0.000e+00
    13.0390   0.028164      0.947  800523681  0.000e+00
    13.0751   0.028594      0.941  800523691  0.000e+00
    13.0655   0.028237      0.965  800523701  0.000e+00
    13.0543   0.027412      0.918  800523711  0.000e+00
    13.1025   0.027313      0.959  800523721  0.000e+00
    13.1023   0.028059      0.959  800523731  0.000e+00
    13.0951   0.028304      1.000  800523741  0.000e+00
    13.0575   0.028709      0.953  800523751  0.000e+00
    13.0386   0.029104      0.977  800523761  0.000e+00
    13.0061   0.028820      0.953  800523771  0.000e+00
    13.0436   0.028903      0.994  800523781  0.000e+00
    13.0868   0.028709      0.965  800523791  0.000e+00
    13.0606   0.028572      0.965  800523801  0.000e+00
    13.0933   0.028578      0.965  800523811  0.000e+00
    13.0558   0.028431      0.965  800523821  0.000e+00
    13.0769   0.028275      0.965  800523831  0.000e+00
    13.0780   0.028145      0.936  800523841  0.000e+00
    13.0747   0.028358      0.959  800523851  0.000e+00
    13.0787   0.028091      1.006  800523861  0.000e+00
    13.0787   0.027944      1.006  800523871  0.000e+00
    13.1113   0.027797      0.977  800523881  0.000e+00
    13.0998   0.027887      0.977  800523891  0.000e+00
    13.1373   0.027807      0.977  800523901  0.000e+00
    13.1617   0.027695      0.995  800523911  0.000e+00
    13.1250   0.027657      0.995  800523921  0.000e+00
    13.1111   0.027756      0.989  800523931  0.000e+00
    13.1325   0.027479      0.995  800523941  0.000e+00
    13.1577   0.027527      0.965  800523951  0.000e+00
    13.2056   0.027418      0.989  800523961  0.000e+00
    13.2280   0.027587      1.006  800523971  0.000e+00
    13.2046   0.027476      0.977  800523981  0.000e+00
    13.2355   0.027374      0.989  800523991  0.000e+00
    13.2150   0.027377      1.001  800524001  0.000e+00
    13.2103   0.027367      0.983  800524011  0.000e+00
    13.2360   0.027052      0.965  800524021  0.000e+00
    13.2311   0.027199      0.983  800524031  0.000e+00
    13.2277   0.027059      1.001  800524041  0.000e+00
    13.2735   0.046108      0.977  800524051  0.000e+00
    13.2561   0.068342      0.954  800524061  0.000e+00
    13.2454   0.076475      0.971  800524071  0.000e+00
    13.1868   0.051008      1.001  800524081  0.000e+00
    12.9997   0.056784      0.948  800524091  0.000e+00
    13.1074   0.051704      0.971  800524101  0.000e+00
    13.2016   0.046664      0.942  800524111  0.000e+00
    13.2647   0.043346      0.942  800524121  0.000e+00
    13.3257   0.041669      0.971  800524131  0.000e+00
    13.3664   0.040322      0.948  800524141  0.000e+00
    13.4059   0.039601      0.942  800524151  0.000e+00
    13.4196   0.038554      0.942  800524161  0.000e+00
    13.4296   0.038131      0.936  800524171  0.000e+00
    13.4449   0.037590      0.913  800524181  0.000e+00
    13.4646   0.037210      0.936  800524191  0.000e+00
    13.4788   0.036858      0.913  800524201  0.000e+00
    13.5004   0.036611      0.930  800524211  0.000e+00
    13.5526   0.036391      0.913  800524221  0.000e+00
    13.5848   0.036237      0.930  800524231  0.000e+00
    13.5956   0.035927      0.889  800524241  0.000e+00
    13.5928   0.035857      0.930  800524251  0.000e+00
    13.5944   0.035761      0.930  800524261  0.000e+00
    13.5997   0.035719      0.930  800524271  0.000e+00
    13.6297   0.035559      0.947  800524281  0.000e+00
    13.6560   0.035607      0.907  800524291  0.000e+00
    13.6910   0.035476      0.901  800524301  0.000e+00
    13.7160   0.035399      0.901  800524311  0.000e+00
    13.7405   0.035227      0.901  800524321  0.000e+00
    13.7324   0.035035      0.871  800524331  0.000e+00
    13.7378   0.034917      0.912  800524341  0.000e+00
    13.7301   0.034763      0.871  800524351  0.000e+00
    13.7347   0.034568      0.912  800524361  0.000e+00
    13.7378   0.034549      0.895  800524371  0.000e+00
    13.7326   0.034517      0.889  800524381  0.000e+00
    13.7488   0.034233      0.889  800524391  0.000e+00
    13.7480   0.034022      0.889  800524401  0.000e+00
    13.8115   0.033929      0.859  800524411  0.000e+00
    13.8492   0.033910      0.883  800524421  0.000e+00
    13.8296   0.033795      0.889  800524431  0.000e+00
    13.8277   0.033555      0.877  800524441  0.000e+00
    13.8216   0.033469      0.906  800524451  0.000e+00
    13.8120   0.033357      0.883  800524461  0.000e+00
    13.8171   0.033162      0.906  800524471  0.000e+00
    13.8152   0.033105      0.877  800524481  0.000e+00
    13.8224   0.032840      0.877  800524491  0.000e+00
    13.8419   0.032728      0.870  800524501  0.000e+00
    13.8444   0.032763      0.853  800524511  0.000e+00
    13.8297   0.032581      0.870  800524521  0.000e+00
    13.8403   0.032543      0.847  800524531  0.000e+00
    13.8618   0.032275      0.853  800524541  0.000e+00
    13.8630   0.032051      0.847  800524551  0.000e+00
    13.8631   0.032026      0.847  800524561  0.000e+00
    13.8892   0.031924      0.847  800524571  0.000e+00
    13.9059   0.031927      0.864  800524581  0.000e+00
    13.9206   0.031818      0.888  800524591  0.000e+00
    13.9215   0.031694      0.841  800524601  0.000e+00
    13.9124   0.031455      0.864  800524611  0.000e+00
    13.9134   0.031413      0.841  800524621  0.000e+00
    13.9229   0.031330      0.841  800524631  0.000e+00
    13.9328   0.031215      0.858  800524641  0.000e+00
    13.9327   0.031167      0.841  800524651  0.000e+00
    13.9439   0.031030      0.858  800524661  0.000e+00
    13.9420   0.030947      0.882  800524671  0.000e+00
    13.9471   0.030864      0.829  800524681  0.000e+00
    13.9658   0.030820      0.852  800524691  0.000e+00
    13.7647   0.077551      0.782  800524701  0.000e+00
    13.7714   0.061754      0.805  800524711  0.000e+00
    13.7442   0.042599      0.805  800524721  0.000e+00
    13.7520   0.037139      0.823  800524731  0.000e+00
    13.7597   0.034268      0.799  800524741  0.000e+00
    13.7421   0.032735      0.799  800524751  0.000e+00
