* Sea-Bird SBE37SM-RS232  Data File:
* FileName = C:\CE25007_recovery_data\9141_cal_dip_data.hex
* Software version SeatermV2 2.8.0.119
* Temperature SN = 9141
* Conductivity SN = 9141
* System UpLoad Time = May 14 2025 09:19:24
* sample interval = 10 seconds
* <ApplicationData>
* <Seaterm232>
* <SoftwareVersion>2.8.0.119</SoftwareVersion>
* <BuildDate>07-Nov-2018</BuildDate>
* </Seaterm232>
* </ApplicationData>
* <InstrumentState>
* <HardwareData DeviceType='SBE37SM-RS232' SerialNumber='03709141'>
*
*    <Manufacturer>Sea-Bird Electronics, Inc.</Manufacturer>
*
*    <FirmwareVersion>4.1</FirmwareVersion>
*
*    <FirmwareDate>Jan 17 2012 15:32:03</FirmwareDate>
*
*    <CommandSetVersion>1.0</CommandSetVersion>
*
*    <PCBAssembly>41720A</PCBAssembly>
*
*    <PCBSerialNum>32376</PCBSerialNum>
*
*    <PCBAssembly>41660B</PCBAssembly>
*
*    <PCBSerialNum>32811</PCBSerialNum>
*
*    <PCBAssembly>41661A</PCBAssembly>
*
*    <PCBSerialNum/>
*
*    <MfgDate>2 Aug 2011</MfgDate>
*
*    <FirmwareLoader>SBE 37-232-V3 FirmwareLoader V 1.0</FirmwareLoader>
*
*    <InternalSensors>
*
*       <Sensor id='Temperature'>
*
*          <type>temperature-1</type>
*
*          <SerialNumber>03709141</SerialNumber>
*
*       </Sensor>
*
*       <Sensor id='Conductivity'>
*
*          <type>conductivity-1</type>
*
*          <SerialNumber>03709141</SerialNumber>
*
*       </Sensor>
*
*       <Sensor id='Pressure'>
*
*          <type>strain-0</type>
*
*          <SerialNumber>3418766</SerialNumber>
*
*       </Sensor>
*
*    </InternalSensors>
*
* </HardwareData>
* <StatusData DeviceType='SBE37SM-RS232' SerialNumber='03709141'>
*
*    <DateTime>2025-05-14T09:18:05</DateTime>
*
*    <EventSummary numEvents='4'/>
*
*    <Power>
*
*       <vMain>13.47</vMain>
*
*       <vLith> 3.00</vLith>
*
*    </Power>
*
*    <MemorySummary>
*
*       <Bytes>715545</Bytes>
*
*       <Samples>47703</Samples>
*
*       <SamplesFree>511537</SamplesFree>
*
*       <SampleLength>15</SampleLength>
*
*    </MemorySummary>
*
*    <AutonomousSampling>no, stop command</AutonomousSampling>
*
* </StatusData>
* <ConfigurationData DeviceType='SBE37SM-RS232' SerialNumber='03709141'>
*
*    <PressureInstalled>yes</PressureInstalled>
*
*    <PumpInstalled>yes</PumpInstalled>
*
*    <MinCondFreq>3300.0</MinCondFreq>
*
*    <SampleDataFormat>converted engineering alternate</SampleDataFormat>
*
*    <OutputSalinity>no</OutputSalinity>
*
*    <OutputSV>no</OutputSV>
*
*    <TxRealTime>no</TxRealTime>
*
*    <SampleInterval>10</SampleInterval>
*
*    <SyncMode>no</SyncMode>
*
* </ConfigurationData>
* <CalibrationCoefficients DeviceType='SBE37SM-RS232' SerialNumber='03709141'>
*
*    <Calibration format='TEMP1' id='Temperature'>
*
*       <SerialNum>03709141</SerialNum>
*
*       <CalDate>09-Nov-23</CalDate>
*
*       <A0>-9.178809e-05</A0>
*
*       <A1>3.055781e-04</A1>
*
*       <A2>-4.398966e-06</A2>
*
*       <A3>1.983224e-07</A3>
*
*    </Calibration>
*
*    <Calibration format='WBCOND0' id='Conductivity'>
*
*       <SerialNum>03709141</SerialNum>
*
*       <CalDate>09-Nov-23</CalDate>
*
*       <G>-9.892907e-01</G>
*
*       <H>1.425887e-01</H>
*
*       <I>-1.763388e-04</I>
*
*       <J>3.284640e-05</J>
*
*       <PCOR>-9.570000e-08</PCOR>
*
*       <TCOR>3.250000e-06</TCOR>
*
*       <WBOTC>0.000000e+00</WBOTC>
*
*    </Calibration>
*
*    <Calibration format='STRAIN0' id='Pressure'>
*
*       <SerialNum>3418766</SerialNum>
*
*       <CalDate>03-Nov-23</CalDate>
*
*       <PA0>2.621221e-02</PA0>
*
*       <PA1>5.028681e-03</PA1>
*
*       <PA2>-5.855417e-11</PA2>
*
*       <PTCA0>5.234765e+05</PTCA0>
*
*       <PTCA1>6.832664e-01</PTCA1>
*
*       <PTCA2>-1.749772e-02</PTCA2>
*
*       <PTCB0>2.512150e+01</PTCB0>
*
*       <PTCB1>7.000000e-04</PTCB1>
*
*       <PTCB2>0.000000e+00</PTCB2>
*
*       <PTEMPA0>-7.257573e+01</PTEMPA0>
*
*       <PTEMPA1>4.989855e-02</PTEMPA1>
*
*       <PTEMPA2>-3.994605e-07</PTEMPA2>
*
*       <POFFSET>0.000000e+00</POFFSET>
*
*       <PRANGE>1.450000e+03</PRANGE>
*
*    </Calibration>
*
* </CalibrationCoefficients>
* <EventCounters DeviceType='SBE37SM-RS232' SerialNumber='03709141'>
*
*    <EventSummary numEvents='4'/>
*
*    <Event type='PON reset' count='4'/>
*
* </EventCounters></InstrumentState>
# nquan = 5
# nvalues = 1390                                  
# units = specified
# name 0 = tv290C: Temperature [ITS-90, deg C]
# name 1 = cond0S/m: Conductivity [S/m]
# name 2 = prdM: Pressure, Strain Gauge [db]
# name 3 = timeK: Time, Instrument [seconds]
# name 4 = flag:  0.000e+00
# span 0 =     2.8058,    15.7980                 
# span 1 =   0.008497,   4.095735                 
# span 2 =      0.019,   1799.199                 
# span 3 =  800511301,  800525191                 
# span 4 = 0.0000e+00, 0.0000e+00                 
# interval = seconds: 10
# start_time = May 14 2025 04:15:01 [Instrument's time stamp, first data scan]
# bad_flag = -9.990e-29
# <Sensors count="3" >
#   <sensor Channel="1" >
#     <!-- Count, Temperature -->
#     <TemperatureSensor SensorID="58" >
#       <SerialNumber>9141</SerialNumber>
#       <CalibrationDate>09-Nov-23</CalibrationDate>
#       <A0>-9.17880900e-005</A0>
#       <A1>3.05578100e-004</A1>
#       <A2>-4.39896600e-006</A2>
#       <A3>1.98322400e-007</A3>
#       <Slope>1.00000000</Slope>
#       <Offset>0.0000</Offset>
#     </TemperatureSensor>
#   </sensor>
#   <sensor Channel="2" >
#     <!-- Frequency 0, Conductivity -->
#     <ConductivitySensor SensorID="3" >
#       <SerialNumber>9141</SerialNumber>
#       <CalibrationDate>09-Nov-23</CalibrationDate>
#       <UseG_J>1</UseG_J>
#       <!-- Cell const and series R are applicable only for wide range sensors. -->
#       <SeriesR>0.0000</SeriesR>
#       <CellConst>2000.0000</CellConst>
#       <ConductivityType>1</ConductivityType>
#       <Coefficients equation="0" >
#         <A>0.00000000e+000</A>
#         <B>0.00000000e+000</B>
#         <C>0.00000000e+000</C>
#         <D>0.00000000e+000</D>
#         <M>0.0</M>
#         <CPcor>-9.57000000e-008</CPcor>
#       </Coefficients>
#       <Coefficients equation="1" >
#         <G>-9.89290700e-001</G>
#         <H>1.42588700e-001</H>
#         <I>-1.76338800e-004</I>
#         <J>3.28464000e-005</J>
#         <CPcor>-9.57000000e-008</CPcor>
#         <CTcor>3.2500e-006</CTcor>
#         <!-- WBOTC not applicable unless ConductivityType = 1. -->
#         <WBOTC>0.00000000e+000</WBOTC>
#       </Coefficients>
#       <Slope>1.00000000</Slope>
#       <Offset>0.00000</Offset>
#     </ConductivitySensor>
#   </sensor>
#   <sensor Channel="3" >
#     <!-- Count, Pressure, Strain Gauge -->
#     <PressureSensor SensorID="46" >
#       <SerialNumber>3418766</SerialNumber>
#       <CalibrationDate>03-Nov-23</CalibrationDate>
#       <PA0>2.62122100e-002</PA0>
#       <PA1>5.02868100e-003</PA1>
#       <PA2>-5.85541700e-011</PA2>
#       <PTEMPA0>-7.25757300e+001</PTEMPA0>
#       <PTEMPA1>4.98985500e-002</PTEMPA1>
#       <PTEMPA2>-3.99460500e-007</PTEMPA2>
#       <PTCA0>5.23476500e+005</PTCA0>
#       <PTCA1>6.83266400e-001</PTCA1>
#       <PTCA2>-1.74977200e-002</PTCA2>
#       <PTCB0>2.51215000e+001</PTCB0>
#       <PTCB1>7.00000000e-004</PTCB1>
#       <PTCB2>0.00000000e+000</PTCB2>
#       <Offset>0.000000</Offset>
#     </PressureSensor>
#   </sensor>
# </Sensors>
# datcnv_date = May 19 2025 07:54:14, 7.26.7.129 [datcnv_vars = 4]
# datcnv_in = C:\CE25007_recovery_data\9141_cal_dip_data.hex C:\CE25007_recovery_data\9141_cal_dip_data.xmlcon
# datcnv_skipover = 0
# file_type = ascii
*END*
    15.7905   0.008724      0.026  800511301  0.000e+00
    15.7980   0.008718      0.019  800511311  0.000e+00
    15.7968   0.008712      0.023  800511321  0.000e+00
    15.7947   0.008712      0.019  800511331  0.000e+00
    15.7950   0.008706      0.026  800511341  0.000e+00
    15.7906   0.008703      0.026  800511351  0.000e+00
    15.7865   0.008703      0.026  800511361  0.000e+00
    15.7849   0.008700      0.026  800511371  0.000e+00
    15.7804   0.008703      0.023  800511381  0.000e+00
    15.7621   0.008700      0.023  800511391  0.000e+00
    15.7498   0.008694      0.026  800511401  0.000e+00
    15.7546   0.008694      0.023  800511411  0.000e+00
    15.7557   0.008691      0.023  800511421  0.000e+00
    15.7536   0.008688      0.026  800511431  0.000e+00
    15.7490   0.008815      0.026  800511441  0.000e+00
    15.7438   0.008688      0.026  800511451  0.000e+00
    15.7442   0.008685      0.026  800511461  0.000e+00
    15.7487   0.008679      0.026  800511471  0.000e+00
    15.7459   0.008679      0.023  800511481  0.000e+00
    15.7425   0.008679      0.030  800511491  0.000e+00
    15.7337   0.008674      0.026  800511501  0.000e+00
    15.7343   0.008674      0.026  800511511  0.000e+00
    15.7318   0.008674      0.026  800511521  0.000e+00
    15.7299   0.008671      0.026  800511531  0.000e+00
    15.7316   0.008671      0.026  800511541  0.000e+00
    15.7324   0.008665      0.026  800511551  0.000e+00
    15.7284   0.008668      0.026  800511561  0.000e+00
    15.7269   0.008665      0.026  800511571  0.000e+00
    15.7242   0.008662      0.030  800511581  0.000e+00
    15.7186   0.008662      0.030  800511591  0.000e+00
    15.7215   0.008659      0.030  800511601  0.000e+00
    15.7178   0.008659      0.030  800511611  0.000e+00
    15.7172   0.008653      0.026  800511621  0.000e+00
    15.7190   0.008653      0.026  800511631  0.000e+00
    15.7161   0.008653      0.033  800511641  0.000e+00
    15.7114   0.008647      0.030  800511651  0.000e+00
    15.7034   0.008647      0.030  800511661  0.000e+00
    15.7102   0.008647      0.030  800511671  0.000e+00
    15.7151   0.008644      0.030  800511681  0.000e+00
    15.7157   0.008644      0.030  800511691  0.000e+00
    15.7135   0.008641      0.030  800511701  0.000e+00
    15.6975   0.008641      0.030  800511711  0.000e+00
    15.6915   0.008638      0.037  800511721  0.000e+00
    15.6890   0.008635      0.030  800511731  0.000e+00
    15.6856   0.008635      0.030  800511741  0.000e+00
    15.6840   0.008632      0.033  800511751  0.000e+00
    15.6947   0.008629      0.033  800511761  0.000e+00
    15.6823   0.008629      0.026  800511771  0.000e+00
    15.6728   0.008624      0.033  800511781  0.000e+00
    15.6590   0.008626      0.033  800511791  0.000e+00
    15.6592   0.008621      0.033  800511801  0.000e+00
    15.6542   0.008621      0.033  800511811  0.000e+00
    15.6569   0.008618      0.033  800511821  0.000e+00
    15.6467   0.008615      0.030  800511831  0.000e+00
    15.6488   0.008615      0.030  800511841  0.000e+00
    15.6505   0.008612      0.030  800511851  0.000e+00
    15.6509   0.008612      0.033  800511861  0.000e+00
    15.6522   0.008609      0.030  800511871  0.000e+00
    15.6539   0.008609      0.033  800511881  0.000e+00
    15.6568   0.008606      0.026  800511891  0.000e+00
    15.6389   0.008606      0.027  800511901  0.000e+00
    15.6425   0.008603      0.033  800511911  0.000e+00
    15.6404   0.008603      0.033  800511921  0.000e+00
    15.6399   0.008597      0.033  800511931  0.000e+00
    15.6255   0.008618      0.030  800511941  0.000e+00
    15.6221   0.008615      0.033  800511951  0.000e+00
    15.6251   0.008612      0.033  800511961  0.000e+00
    15.6279   0.008609      0.030  800511971  0.000e+00
    15.6255   0.008609      0.033  800511981  0.000e+00
    15.6266   0.008606      0.037  800511991  0.000e+00
    15.6231   0.008609      0.033  800512001  0.000e+00
    15.6129   0.008603      0.033  800512011  0.000e+00
    15.6141   0.008600      0.030  800512021  0.000e+00
    15.6157   0.008600      0.033  800512031  0.000e+00
    15.6080   0.008600      0.034  800512041  0.000e+00
    15.6060   0.008597      0.030  800512051  0.000e+00
    15.6039   0.008597      0.030  800512061  0.000e+00
    15.6040   0.008594      0.030  800512071  0.000e+00
    15.6042   0.008594      0.030  800512081  0.000e+00
    15.6079   0.008594      0.033  800512091  0.000e+00
    15.6107   0.008594      0.034  800512101  0.000e+00
    15.6154   0.008594      0.037  800512111  0.000e+00
    15.6176   0.008594      0.033  800512121  0.000e+00
    15.6138   0.008591      0.037  800512131  0.000e+00
    15.6291   0.008591      0.030  800512141  0.000e+00
    15.6651   0.008591      0.034  800512151  0.000e+00
    15.6736   0.008591      0.030  800512161  0.000e+00
    15.6779   0.008588      0.037  800512171  0.000e+00
    15.6736   0.008582      0.037  800512181  0.000e+00
    15.6701   0.008588      0.034  800512191  0.000e+00
    15.6669   0.008582      0.037  800512201  0.000e+00
    15.6641   0.008585      0.033  800512211  0.000e+00
    15.6392   0.008582      0.037  800512221  0.000e+00
    15.6233   0.008579      0.037  800512231  0.000e+00
    15.6224   0.008579      0.034  800512241  0.000e+00
    15.6246   0.008573      0.037  800512251  0.000e+00
    15.6222   0.008573      0.037  800512261  0.000e+00
    15.6208   0.008573      0.040  800512271  0.000e+00
    15.6212   0.008571      0.037  800512281  0.000e+00
    15.6150   0.008571      0.034  800512291  0.000e+00
    15.6042   0.008571      0.037  800512301  0.000e+00
    15.5940   0.008568      0.037  800512311  0.000e+00
    15.5965   0.008565      0.034  800512321  0.000e+00
    15.5780   0.008562      0.034  800512331  0.000e+00
    15.5788   0.008562      0.034  800512341  0.000e+00
    15.5831   0.008559      0.030  800512351  0.000e+00
    15.5779   0.008559      0.037  800512361  0.000e+00
    15.5695   0.008553      0.034  800512371  0.000e+00
    15.5567   0.008550      0.037  800512381  0.000e+00
    15.5557   0.008547      0.037  800512391  0.000e+00
    15.5456   0.008547      0.034  800512401  0.000e+00
    15.5452   0.008550      0.037  800512411  0.000e+00
    15.5149   0.008541      0.041  800512421  0.000e+00
    15.5080   0.008538      0.030  800512431  0.000e+00
    15.5050   0.008535      0.034  800512441  0.000e+00
    15.5003   0.008535      0.034  800512451  0.000e+00
    15.4940   0.008535      0.034  800512461  0.000e+00
    15.4897   0.008535      0.034  800512471  0.000e+00
    15.4939   0.008532      0.034  800512481  0.000e+00
    15.4974   0.008529      0.030  800512491  0.000e+00
    15.4916   0.008532      0.030  800512501  0.000e+00
    15.4925   0.008529      0.037  800512511  0.000e+00
    15.4626   0.008526      0.037  800512521  0.000e+00
    15.4638   0.008526      0.030  800512531  0.000e+00
    15.4492   0.008520      0.034  800512541  0.000e+00
    15.4420   0.008518      0.037  800512551  0.000e+00
    15.4396   0.008518      0.037  800512561  0.000e+00
    15.1872   0.008512      0.037  800512571  0.000e+00
    14.7791   0.008506      0.034  800512581  0.000e+00
    14.7999   0.008506      0.030  800512591  0.000e+00
    14.9819   0.008497      0.037  800512601  0.000e+00
    12.3816   3.563395      0.959  800512611  0.000e+00
    12.3899   4.095735      0.962  800512621  0.000e+00
    12.3683   4.046056      2.002  800512631  0.000e+00
    12.3614   4.085174      5.717  800512641  0.000e+00
    12.3505   4.079814      8.895  800512651  0.000e+00
    12.3481   4.080983     10.679  800512661  0.000e+00
    12.3467   4.073950     10.572  800512671  0.000e+00
    12.3453   4.079006      8.871  800512681  0.000e+00
    12.3453   4.078391      4.959  800512691  0.000e+00
    12.3418   4.077702      1.064  800512701  0.000e+00
    12.3438   4.077662      1.327  800512711  0.000e+00
    12.3440   4.077562      1.164  800512721  0.000e+00
    12.3438   4.077476      2.246  800512731  0.000e+00
    12.3449   4.029589      7.288  800512741  0.000e+00
    12.3453   4.077926     11.741  800512751  0.000e+00
    12.2882   4.072885     16.461  800512761  0.000e+00
    12.1408   4.058859     21.326  800512771  0.000e+00
    12.0135   4.003637     26.382  800512781  0.000e+00
    11.8551   4.031624     32.193  800512791  0.000e+00
    11.4358   3.992958     39.316  800512801  0.000e+00
    11.3404   3.984153     45.899  800512811  0.000e+00
    11.3275   3.983508     52.732  800512821  0.000e+00
    11.3345   3.984364     59.771  800512831  0.000e+00
    11.3235   3.984221     66.811  800512841  0.000e+00
    11.3287   3.985083     74.041  800512851  0.000e+00
    11.2892   3.981332     81.305  800512861  0.000e+00
    11.2947   3.982611     89.479  800512871  0.000e+00
    11.3088   3.984888     98.277  800512881  0.000e+00
    11.2331   3.976757    105.159  800512891  0.000e+00
    11.1506   3.968131    111.164  800512901  0.000e+00
    11.1174   3.965549    121.685  800512911  0.000e+00
    11.1293   3.967117    132.812  800512921  0.000e+00
    11.1248   3.967293    143.487  800512931  0.000e+00
    11.0558   3.960839    153.337  800512941  0.000e+00
    11.0163   3.957211    162.779  800512951  0.000e+00
    10.9785   3.953669    172.320  800512961  0.000e+00
    10.9483   3.950708    181.954  800512971  0.000e+00
    10.8617   3.942528    192.480  800512981  0.000e+00
    10.8319   3.939847    202.508  800512991  0.000e+00
    10.8039   3.937707    212.604  800513001  0.000e+00
    10.7655   3.934343    222.457  800513011  0.000e+00
    10.7522   3.933657    233.413  800513021  0.000e+00
    10.6914   3.927508    243.520  800513031  0.000e+00
    10.6127   3.919604    253.542  800513041  0.000e+00
    10.4942   3.907364    263.765  800513051  0.000e+00
    10.3020   3.886715    273.777  800513061  0.000e+00
    10.2036   3.876196    284.160  800513071  0.000e+00
    10.2303   3.879822    294.070  800513081  0.000e+00
    10.0936   3.866085    304.368  800513091  0.000e+00
     9.9736   3.853972    314.482  800513101  0.000e+00
    10.0728   3.864956    324.646  800513111  0.000e+00
    10.2143   3.882453    334.755  800513121  0.000e+00
    10.2213   3.884420    345.351  800513131  0.000e+00
    10.2191   3.885326    355.492  800513141  0.000e+00
    10.1288   3.876384    365.613  800513151  0.000e+00
     9.9945   3.862874    375.671  800513161  0.000e+00
     9.9735   3.860809    385.828  800513171  0.000e+00
     9.9502   3.858647    396.068  800513181  0.000e+00
     9.9040   3.854724    406.282  800513191  0.000e+00
     9.8743   3.852400    416.046  800513201  0.000e+00
     9.7810   3.843860    425.776  800513211  0.000e+00
     9.7291   3.839226    435.671  800513221  0.000e+00
     9.6857   3.835220    445.948  800513231  0.000e+00
     9.6484   3.831847    456.153  800513241  0.000e+00
     9.6182   3.829060    466.190  800513251  0.000e+00
     9.6040   3.827861    476.346  800513261  0.000e+00
     9.5545   3.823366    486.534  800513271  0.000e+00
     9.5010   3.818521    496.480  800513281  0.000e+00
     9.4600   3.814764    506.684  800513291  0.000e+00
     9.3634   3.805136    516.646  800513301  0.000e+00
     9.2279   3.792154    526.735  800513311  0.000e+00
     9.1628   3.785714    536.966  800513321  0.000e+00
     9.0483   3.774834    547.133  800513331  0.000e+00
     8.9686   3.766500    557.337  800513341  0.000e+00
     8.8359   3.753932    567.646  800513351  0.000e+00
     8.8186   3.752000    577.385  800513361  0.000e+00
     8.7142   3.742120    587.401  800513371  0.000e+00
     8.5834   3.730886    597.770  800513381  0.000e+00
     8.5223   3.726166    607.565  800513391  0.000e+00
     8.4711   3.721533    617.423  800513401  0.000e+00
     8.3927   3.714537    627.480  800513411  0.000e+00
     8.3298   3.708779    637.478  800513421  0.000e+00
     8.2106   3.697963    647.570  800513431  0.000e+00
     8.1765   3.694601    657.613  800513441  0.000e+00
     8.1091   3.688541    667.577  800513451  0.000e+00
     8.0135   3.679330    677.570  800513461  0.000e+00
     7.8955   3.668094    687.724  800513471  0.000e+00
     7.6113   3.639369    697.759  800513481  0.000e+00
     7.4313   3.620287    707.382  800513491  0.000e+00
     7.4233   3.619184    717.748  800513501  0.000e+00
     7.2893   3.606009    727.984  800513511  0.000e+00
     7.1982   3.597635    737.833  800513521  0.000e+00
     7.1143   3.590226    747.818  800513531  0.000e+00
     7.0244   3.582064    758.196  800513541  0.000e+00
     6.9971   3.580180    768.461  800513551  0.000e+00
     6.9385   3.574779    778.924  800513561  0.000e+00
     6.8742   3.568704    789.000  800513571  0.000e+00
     6.7569   3.558236    799.631  800513581  0.000e+00
     6.7985   3.563274    809.508  800513591  0.000e+00
     6.7572   3.559879    819.830  800513601  0.000e+00
     6.6876   3.553871    829.942  800513611  0.000e+00
     6.5768   3.543521    840.493  800513621  0.000e+00
     6.4517   3.531741    850.686  800513631  0.000e+00
     6.4246   3.528835    860.342  800513641  0.000e+00
     6.3730   3.524201    870.415  800513651  0.000e+00
     6.3151   3.519021    880.451  800513661  0.000e+00
     6.2581   3.513694    890.249  800513671  0.000e+00
     6.1591   3.504583    900.069  800513681  0.000e+00
     6.0533   3.494522    909.773  800513691  0.000e+00
     6.0071   3.490212    919.750  800513701  0.000e+00
     5.9569   3.485478    929.474  800513711  0.000e+00
     5.8958   3.479808    939.312  800513721  0.000e+00
     5.8543   3.475918    949.224  800513731  0.000e+00
     5.8091   3.471836    959.058  800513741  0.000e+00
     5.7527   3.466762    969.064  800513751  0.000e+00
     5.7037   3.462328    978.676  800513761  0.000e+00
     5.6439   3.456610    988.491  800513771  0.000e+00
     5.5599   3.448880    998.413  800513781  0.000e+00
     5.5073   3.443738   1008.077  800513791  0.000e+00
     5.4241   3.436170   1018.226  800513801  0.000e+00
     5.3585   3.429959   1028.208  800513811  0.000e+00
     5.2931   3.423758   1037.992  800513821  0.000e+00
     5.2480   3.419787   1048.069  800513831  0.000e+00
     5.2255   3.417851   1057.825  800513841  0.000e+00
     5.1541   3.411360   1067.973  800513851  0.000e+00
     5.0938   3.405856   1077.947  800513861  0.000e+00
     5.0274   3.399709   1087.794  800513871  0.000e+00
     4.9614   3.393710   1097.770  800513881  0.000e+00
     4.9423   3.392089   1108.404  800513891  0.000e+00
     4.9233   3.390605   1118.634  800513901  0.000e+00
     4.8689   3.385516   1128.818  800513911  0.000e+00
     4.7519   3.374292   1138.872  800513921  0.000e+00
     4.6690   3.366277   1149.262  800513931  0.000e+00
     4.6624   3.365848   1159.692  800513941  0.000e+00
     4.6145   3.361632   1170.000  800513951  0.000e+00
     4.6086   3.361135   1180.061  800513961  0.000e+00
     4.5888   3.359410   1190.010  800513971  0.000e+00
     4.5861   3.360043   1200.322  800513981  0.000e+00
     4.5936   3.361232   1210.422  800513991  0.000e+00
     4.5762   3.360043   1220.191  800514001  0.000e+00
     4.5331   3.356200   1230.293  800514011  0.000e+00
     4.4820   3.351773   1240.579  800514021  0.000e+00
     4.4564   3.349685   1250.401  800514031  0.000e+00
     4.5019   3.354618   1260.596  800514041  0.000e+00
     4.4430   3.349322   1270.640  800514051  0.000e+00
     4.4176   3.347229   1280.812  800514061  0.000e+00
     4.4187   3.347996   1290.541  800514071  0.000e+00
     4.4035   3.346878   1300.577  800514081  0.000e+00
     4.3911   3.346153   1310.683  800514091  0.000e+00
     4.3652   3.344122   1320.540  800514101  0.000e+00
     4.2964   3.337915   1330.511  800514111  0.000e+00
     4.1861   3.327424   1340.681  800514121  0.000e+00
     4.1401   3.323319   1350.374  800514131  0.000e+00
     4.1266   3.322154   1360.203  800514141  0.000e+00
     4.1943   3.329328   1370.598  800514151  0.000e+00
     4.1860   3.329061   1380.401  800514161  0.000e+00
     4.1593   3.327095   1389.982  800514171  0.000e+00
     4.1451   3.326053   1400.007  800514181  0.000e+00
     4.1117   3.323172   1410.255  800514191  0.000e+00
     4.0576   3.318498   1420.160  800514201  0.000e+00
     4.0522   3.318237   1430.184  800514211  0.000e+00
     4.0440   3.317761   1440.165  800514221  0.000e+00
     4.0271   3.316566   1449.879  800514231  0.000e+00
     4.0209   3.316360   1460.077  800514241  0.000e+00
     4.0310   3.317905   1469.751  800514251  0.000e+00
     4.0198   3.317269   1479.644  800514261  0.000e+00
     3.9800   3.313845   1489.197  800514271  0.000e+00
     3.9604   3.312307   1499.196  800514281  0.000e+00
     3.9484   3.311524   1508.910  800514291  0.000e+00
     3.9368   3.310833   1518.694  800514301  0.000e+00
     3.9281   3.310413   1528.661  800514311  0.000e+00
     3.9213   3.310170   1538.841  800514321  0.000e+00
     3.9135   3.309836   1548.700  800514331  0.000e+00
     3.8990   3.308814   1558.219  800514341  0.000e+00
     3.8860   3.308167   1568.349  800514351  0.000e+00
     3.8733   3.307433   1578.573  800514361  0.000e+00
     3.8562   3.306252   1588.776  800514371  0.000e+00
     3.8372   3.304758   1598.719  800514381  0.000e+00
     3.8338   3.304823   1609.029  800514391  0.000e+00
     3.8211   3.304115   1619.370  800514401  0.000e+00
     3.8063   3.303124   1629.863  800514411  0.000e+00
     3.7951   3.302398   1640.168  800514421  0.000e+00
     3.7849   3.301978   1650.281  800514431  0.000e+00
     3.7843   3.302367   1660.625  800514441  0.000e+00
     3.7648   3.301052   1670.698  800514451  0.000e+00
     3.7579   3.300859   1681.172  800514461  0.000e+00
     3.7579   3.301353   1691.730  800514471  0.000e+00
     3.7509   3.301166   1701.705  800514481  0.000e+00
     3.7253   3.299226   1712.115  800514491  0.000e+00
     3.7113   3.298389   1722.342  800514501  0.000e+00
     3.7106   3.298779   1732.723  800514511  0.000e+00
     3.7104   3.299180   1742.708  800514521  0.000e+00
     3.7065   3.299380   1752.745  800514531  0.000e+00
     3.7091   3.300236   1762.986  800514541  0.000e+00
     3.7022   3.300079   1772.912  800514551  0.000e+00
     3.6901   3.299482   1782.676  800514561  0.000e+00
     3.6872   3.299656   1792.618  800514571  0.000e+00
     3.6813   3.299603   1799.141  800514581  0.000e+00
     3.6775   3.299695   1799.141  800514591  0.000e+00
     3.6709   3.299554   1799.143  800514601  0.000e+00
     3.6682   3.299671   1799.143  800514611  0.000e+00
     3.6651   3.299812   1799.141  800514621  0.000e+00
     3.6552   3.299395   1799.143  800514631  0.000e+00
     3.6395   3.298414   1799.143  800514641  0.000e+00
     3.6345   3.298396   1799.146  800514651  0.000e+00
     3.6281   3.298335   1799.146  800514661  0.000e+00
     3.6087   3.297237   1799.146  800514671  0.000e+00
     3.5824   3.295337   1799.148  800514681  0.000e+00
     3.5687   3.294443   1799.146  800514691  0.000e+00
     3.5603   3.294057   1799.146  800514701  0.000e+00
     3.5398   3.292562   1799.146  800514711  0.000e+00
     3.5302   3.292109   1799.148  800514721  0.000e+00
     3.5135   3.291073   1799.148  800514731  0.000e+00
     3.5112   3.291245   1799.148  800514741  0.000e+00
     3.5056   3.291129   1799.148  800514751  0.000e+00
     3.4721   3.288710   1799.151  800514761  0.000e+00
     3.4643   3.288361   1799.151  800514771  0.000e+00
     3.4443   3.287057   1799.151  800514781  0.000e+00
     3.4335   3.286463   1799.151  800514791  0.000e+00
     3.4252   3.286169   1799.151  800514801  0.000e+00
     3.4164   3.285716   1799.153  800514811  0.000e+00
     3.3998   3.284743   1799.151  800514821  0.000e+00
     3.3927   3.284523   1799.153  800514831  0.000e+00
     3.3880   3.284486   1799.153  800514841  0.000e+00
     3.3730   3.283605   1799.156  800514851  0.000e+00
     3.3502   3.282050   1799.156  800514861  0.000e+00
     3.3293   3.280692   1799.156  800514871  0.000e+00
     3.3055   3.279028   1799.156  800514881  0.000e+00
     3.2841   3.277536   1799.158  800514891  0.000e+00
     3.2579   3.275665   1799.158  800514901  0.000e+00
     3.2409   3.274528   1799.158  800514911  0.000e+00
     3.2052   3.271869   1799.161  800514921  0.000e+00
     3.1905   3.270867   1799.158  800514931  0.000e+00
     3.1722   3.269706   1799.161  800514941  0.000e+00
     3.1541   3.268472   1799.161  800514951  0.000e+00
     3.1209   3.266023   1799.163  800514961  0.000e+00
     3.0927   3.263965   1799.163  800514971  0.000e+00
     3.0691   3.262293   1799.163  800514981  0.000e+00
     3.0426   3.260303   1799.169  800514991  0.000e+00
     3.0316   3.259625   1799.169  800515001  0.000e+00
     3.0093   3.258124   1799.166  800515011  0.000e+00
     2.9819   3.256075   1799.169  800515021  0.000e+00
     2.9638   3.254776   1799.169  800515031  0.000e+00
     2.9337   3.252617   1799.171  800515041  0.000e+00
     2.9163   3.251465   1799.171  800515051  0.000e+00
     2.9044   3.250727   1799.171  800515061  0.000e+00
     2.8940   3.250142   1799.174  800515071  0.000e+00
     2.8805   3.249331   1799.174  800515081  0.000e+00
     2.8801   3.249581   1799.176  800515091  0.000e+00
     2.8791   3.249819   1799.176  800515101  0.000e+00
     2.8729   3.249606   1799.179  800515111  0.000e+00
     2.8688   3.249319   1799.179  800515121  0.000e+00
     2.8600   3.248813   1799.181  800515131  0.000e+00
     2.8541   3.248649   1799.181  800515141  0.000e+00
     2.8469   3.248314   1799.181  800515151  0.000e+00
     2.8450   3.248430   1799.181  800515161  0.000e+00
     2.8423   3.248454   1799.184  800515171  0.000e+00
     2.8412   3.248673   1799.184  800515181  0.000e+00
     2.8389   3.248673   1799.181  800515191  0.000e+00
     2.8283   3.247881   1799.184  800515201  0.000e+00
     2.8177   3.247132   1799.184  800515211  0.000e+00
     2.8110   3.246699   1799.186  800515221  0.000e+00
     2.8086   3.246608   1799.184  800515231  0.000e+00
     2.8082   3.246541   1799.186  800515241  0.000e+00
     2.8059   3.246273   1799.186  800515251  0.000e+00
     2.8058   3.246273   1799.191  800515261  0.000e+00
     2.8095   3.246565   1799.189  800515271  0.000e+00
     2.8084   3.246486   1799.191  800515281  0.000e+00
     2.8092   3.246565   1799.186  800515291  0.000e+00
     2.8089   3.246516   1799.189  800515301  0.000e+00
     2.8088   3.246480   1799.189  800515311  0.000e+00
     2.8083   3.246462   1799.189  800515321  0.000e+00
     2.8092   3.246522   1799.191  800515331  0.000e+00
     2.8095   3.246589   1799.191  800515341  0.000e+00
     2.8102   3.246638   1799.191  800515351  0.000e+00
     2.8103   3.246650   1799.191  800515361  0.000e+00
     2.8104   3.246644   1799.191  800515371  0.000e+00
     2.8098   3.246626   1799.191  800515381  0.000e+00
     2.8103   3.246669   1799.191  800515391  0.000e+00
     2.8108   3.246675   1799.194  800515401  0.000e+00
     2.8103   3.246669   1799.191  800515411  0.000e+00
     2.8109   3.246699   1799.191  800515421  0.000e+00
     2.8106   3.246669   1799.191  800515431  0.000e+00
     2.8103   3.246638   1799.191  800515441  0.000e+00
     2.8103   3.246657   1799.191  800515451  0.000e+00
     2.8100   3.246650   1799.194  800515461  0.000e+00
     2.8099   3.246626   1799.194  800515471  0.000e+00
     2.8104   3.246657   1799.194  800515481  0.000e+00
     2.8103   3.246657   1799.194  800515491  0.000e+00
     2.8105   3.246669   1799.194  800515501  0.000e+00
     2.8102   3.246644   1799.191  800515511  0.000e+00
     2.8107   3.246644   1799.196  800515521  0.000e+00
     2.8106   3.246669   1799.194  800515531  0.000e+00
     2.8103   3.246687   1799.194  800515541  0.000e+00
     2.8106   3.246681   1799.194  800515551  0.000e+00
     2.8100   3.246644   1799.196  800515561  0.000e+00
     2.8100   3.246589   1799.194  800515571  0.000e+00
     2.8098   3.246626   1799.194  800515581  0.000e+00
     2.8089   3.246535   1799.194  800515591  0.000e+00
     2.8086   3.246516   1799.196  800515601  0.000e+00
     2.8095   3.246589   1799.196  800515611  0.000e+00
     2.8098   3.246614   1799.196  800515621  0.000e+00
     2.8095   3.246583   1799.194  800515631  0.000e+00
     2.8096   3.246559   1799.194  800515641  0.000e+00
     2.8095   3.246577   1799.196  800515651  0.000e+00
     2.8097   3.246638   1799.194  800515661  0.000e+00
     2.8104   3.246657   1799.194  800515671  0.000e+00
     2.8103   3.246657   1799.194  800515681  0.000e+00
     2.8097   3.246589   1799.196  800515691  0.000e+00
     2.8097   3.246614   1799.194  800515701  0.000e+00
     2.8097   3.246626   1799.194  800515711  0.000e+00
     2.8102   3.246669   1799.194  800515721  0.000e+00
     2.8107   3.246693   1799.196  800515731  0.000e+00
     2.8103   3.246644   1799.196  800515741  0.000e+00
     2.8102   3.246644   1799.196  800515751  0.000e+00
     2.8100   3.246644   1799.196  800515761  0.000e+00
     2.8101   3.246650   1799.196  800515771  0.000e+00
     2.8096   3.246614   1799.196  800515781  0.000e+00
     2.8095   3.246608   1799.196  800515791  0.000e+00
     2.8094   3.246571   1799.196  800515801  0.000e+00
     2.8094   3.246577   1799.196  800515811  0.000e+00
     2.8095   3.246608   1799.194  800515821  0.000e+00
     2.8083   3.246504   1799.196  800515831  0.000e+00
     2.8082   3.246486   1799.196  800515841  0.000e+00
     2.8084   3.246480   1799.196  800515851  0.000e+00
     2.8083   3.246486   1799.199  800515861  0.000e+00
     2.8083   3.246474   1799.196  800515871  0.000e+00
     2.8086   3.246504   1799.196  800515881  0.000e+00
     2.8087   3.246504   1799.196  800515891  0.000e+00
     2.8083   3.246498   1799.196  800515901  0.000e+00
     2.8087   3.246541   1799.196  800515911  0.000e+00
     2.8090   3.246522   1799.196  800515921  0.000e+00
     2.8089   3.246529   1799.196  800515931  0.000e+00
     2.8085   3.246492   1799.196  800515941  0.000e+00
     2.8084   3.246498   1799.196  800515951  0.000e+00
     2.8087   3.246522   1799.196  800515961  0.000e+00
     2.8094   3.246583   1799.196  800515971  0.000e+00
     2.8092   3.246589   1799.196  800515981  0.000e+00
     2.8096   3.246602   1799.196  800515991  0.000e+00
     2.8100   3.246632   1799.196  800516001  0.000e+00
     2.8107   3.246687   1799.196  800516011  0.000e+00
     2.8102   3.246669   1799.196  800516021  0.000e+00
     2.8106   3.246687   1799.196  800516031  0.000e+00
     2.8102   3.246657   1799.196  800516041  0.000e+00
     2.8102   3.246675   1799.196  800516051  0.000e+00
     2.8103   3.246675   1799.194  800516061  0.000e+00
     2.8095   3.246589   1799.196  800516071  0.000e+00
     2.8099   3.246638   1799.196  800516081  0.000e+00
     2.8101   3.246650   1799.196  800516091  0.000e+00
     2.8100   3.246638   1799.196  800516101  0.000e+00
     2.8103   3.246669   1799.196  800516111  0.000e+00
     2.8104   3.246650   1799.199  800516121  0.000e+00
     2.8102   3.246669   1799.196  800516131  0.000e+00
     2.8102   3.246657   1799.196  800516141  0.000e+00
     2.8103   3.246687   1799.196  800516151  0.000e+00
     2.8101   3.246669   1799.196  800516161  0.000e+00
     2.8104   3.246681   1799.196  800516171  0.000e+00
     2.8108   3.246705   1799.196  800516181  0.000e+00
     2.8109   3.246681   1799.196  800516191  0.000e+00
     2.8114   3.246474   1799.199  800516201  0.000e+00
     2.8301   3.247765   1799.199  800516211  0.000e+00
     2.8425   3.248521   1799.199  800516221  0.000e+00
     2.8434   3.248381   1799.199  800516231  0.000e+00
     2.8446   3.248241   1799.196  800516241  0.000e+00
     2.8463   3.248088   1799.196  800516251  0.000e+00
     2.8461   3.247784   1799.199  800516261  0.000e+00
     2.8457   3.247704   1799.196  800516271  0.000e+00
     2.8465   3.247771   1799.196  800516281  0.000e+00
     2.8469   3.247844   1799.199  800516291  0.000e+00
     2.8468   3.247857   1799.196  800516301  0.000e+00
     2.8468   3.247844   1799.196  800516311  0.000e+00
     2.8467   3.247838   1799.196  800516321  0.000e+00
     2.8465   3.247857   1799.196  800516331  0.000e+00
     2.8472   3.247893   1799.196  800516341  0.000e+00
     2.8471   3.247905   1799.194  800516351  0.000e+00
     2.8470   3.247875   1799.196  800516361  0.000e+00
     2.8476   3.247930   1799.196  800516371  0.000e+00
     2.8474   3.247887   1799.196  800516381  0.000e+00
     2.8490   3.247716   1799.196  800516391  0.000e+00
     2.8555   3.247954   1799.196  800516401  0.000e+00
     2.8620   3.248198   1799.196  800516411  0.000e+00
     2.8604   3.248082   1799.196  800516421  0.000e+00
     2.8627   3.248234   1799.196  800516431  0.000e+00
     2.8680   3.248362   1799.194  800516441  0.000e+00
     2.8718   3.248399   1799.196  800516451  0.000e+00
     2.8763   3.248454   1799.196  800516461  0.000e+00
     2.8755   3.248155   1799.194  800516471  0.000e+00
     2.8943   3.249435   1799.196  800516481  0.000e+00
     2.8996   3.249618   1799.194  800516491  0.000e+00
     2.9075   3.250008   1799.196  800516501  0.000e+00
     2.9267   3.251282   1799.196  800516511  0.000e+00
     2.9503   3.253013   1799.196  800516521  0.000e+00
     2.9729   3.254714   1799.196  800516531  0.000e+00
     2.9966   3.256392   1799.196  800516541  0.000e+00
     3.0043   3.256916   1799.194  800516551  0.000e+00
     3.0198   3.257984   1799.194  800516561  0.000e+00
     3.0290   3.258509   1799.194  800516571  0.000e+00
     3.0408   3.259284   1799.194  800516581  0.000e+00
     3.0705   3.261511   1799.194  800516591  0.000e+00
     3.0911   3.262958   1799.194  800516601  0.000e+00
     3.1080   3.264197   1799.191  800516611  0.000e+00
     3.1195   3.264936   1799.194  800516621  0.000e+00
     3.1409   3.266524   1799.191  800516631  0.000e+00
     3.1456   3.266737   1799.191  800516641  0.000e+00
     3.1512   3.267000   1799.191  800516651  0.000e+00
     3.1605   3.267544   1799.189  800516661  0.000e+00
     3.1810   3.268979   1799.189  800516671  0.000e+00
     3.1943   3.269859   1799.186  800516681  0.000e+00
     3.2214   3.271857   1799.189  800516691  0.000e+00
     3.2248   3.272083   1799.189  800516701  0.000e+00
     3.2246   3.272266   1799.189  800516711  0.000e+00
     3.2256   3.272370   1799.186  800516721  0.000e+00
     3.2273   3.272492   1799.184  800516731  0.000e+00
     3.2264   3.272486   1799.186  800516741  0.000e+00
     3.2278   3.272603   1799.184  800516751  0.000e+00
     3.2290   3.272737   1799.184  800516761  0.000e+00
     3.2301   3.272810   1799.184  800516771  0.000e+00
     3.2309   3.272890   1799.184  800516781  0.000e+00
     3.2312   3.272945   1799.184  800516791  0.000e+00
     3.2316   3.272988   1799.184  800516801  0.000e+00
     3.2317   3.272981   1799.184  800516811  0.000e+00
     3.2312   3.272957   1799.181  800516821  0.000e+00
     3.2312   3.272914   1799.181  800516831  0.000e+00
     3.2543   3.274467   1799.181  800516841  0.000e+00
     3.2653   3.275096   1799.181  800516851  0.000e+00
     3.2749   3.275628   1799.181  800516861  0.000e+00
     3.2823   3.275995   1799.181  800516871  0.000e+00
     3.2949   3.276747   1799.181  800516881  0.000e+00
     3.3124   3.277927   1799.179  800516891  0.000e+00
     3.3392   3.279872   1799.181  800516901  0.000e+00
     3.3582   3.281194   1799.181  800516911  0.000e+00
     3.3629   3.281426   1799.179  800516921  0.000e+00
     3.3871   3.283109   1799.181  800516931  0.000e+00
     3.3913   3.283280   1799.176  800516941  0.000e+00
     3.3991   3.283641   1799.179  800516951  0.000e+00
     3.4131   3.284571   1799.179  800516961  0.000e+00
     3.4075   3.284210   1799.176  800516971  0.000e+00
     3.4125   3.284663   1799.179  800516981  0.000e+00
     3.4155   3.284932   1799.176  800516991  0.000e+00
     3.4157   3.284981   1799.176  800517001  0.000e+00
     3.4153   3.285000   1799.174  800517011  0.000e+00
     3.4152   3.284988   1799.176  800517021  0.000e+00
     3.4151   3.285000   1799.176  800517031  0.000e+00
     3.4153   3.285024   1799.174  800517041  0.000e+00
     3.4153   3.285024   1799.174  800517051  0.000e+00
     3.4146   3.285000   1799.174  800517061  0.000e+00
     3.4148   3.284981   1799.174  800517071  0.000e+00
     3.4148   3.284963   1799.171  800517081  0.000e+00
     3.4142   3.284951   1799.171  800517091  0.000e+00
     3.4144   3.284975   1799.174  800517101  0.000e+00
     3.4146   3.285000   1799.171  800517111  0.000e+00
     3.4147   3.285000   1799.171  800517121  0.000e+00
     3.4145   3.284975   1799.174  800517131  0.000e+00
     3.4144   3.284945   1799.171  800517141  0.000e+00
     3.4144   3.284994   1799.171  800517151  0.000e+00
     3.4138   3.284902   1799.169  800517161  0.000e+00
     3.4116   3.284724   1799.171  800517171  0.000e+00
     3.4118   3.284737   1799.169  800517181  0.000e+00
     3.4121   3.284749   1799.169  800517191  0.000e+00
     3.4121   3.284743   1799.169  800517201  0.000e+00
     3.4120   3.284749   1799.171  800517211  0.000e+00
     3.4120   3.284761   1799.169  800517221  0.000e+00
     3.4128   3.284786   1799.171  800517231  0.000e+00
     3.4125   3.284773   1799.169  800517241  0.000e+00
     3.4124   3.284773   1799.169  800517251  0.000e+00
     3.4125   3.284804   1799.171  800517261  0.000e+00
     3.4129   3.284816   1799.169  800517271  0.000e+00
     3.4127   3.284792   1799.169  800517281  0.000e+00
     3.4104   3.284608   1799.166  800517291  0.000e+00
     3.4086   3.284467   1799.169  800517301  0.000e+00
     3.4066   3.284308   1799.169  800517311  0.000e+00
     3.4062   3.284265   1799.169  800517321  0.000e+00
     3.4078   3.284369   1799.169  800517331  0.000e+00
     3.4086   3.284424   1799.169  800517341  0.000e+00
     3.4097   3.284516   1799.169  800517351  0.000e+00
     3.4098   3.284571   1799.166  800517361  0.000e+00
     3.4105   3.284620   1799.169  800517371  0.000e+00
     3.4102   3.284608   1799.169  800517381  0.000e+00
     3.4105   3.284626   1799.169  800517391  0.000e+00
     3.4108   3.284620   1799.166  800517401  0.000e+00
     3.4107   3.284639   1799.169  800517411  0.000e+00
     3.4151   3.284767   1799.169  800517421  0.000e+00
     3.4229   3.285116   1799.166  800517431  0.000e+00
     3.4366   3.285906   1799.169  800517441  0.000e+00
     3.4514   3.286873   1799.169  800517451  0.000e+00
     3.4554   3.286891   1799.166  800517461  0.000e+00
     3.4619   3.287197   1799.169  800517471  0.000e+00
     3.4707   3.287577   1799.169  800517481  0.000e+00
     3.4797   3.288030   1799.166  800517491  0.000e+00
     3.4892   3.288562   1799.166  800517501  0.000e+00
     3.4977   3.289016   1799.169  800517511  0.000e+00
     3.5148   3.290198   1799.169  800517521  0.000e+00
     3.5430   3.292347   1799.169  800517531  0.000e+00
     3.5717   3.294553   1799.169  800517541  0.000e+00
     3.5696   3.294382   1799.166  800517551  0.000e+00
     3.5756   3.295013   1799.166  800517561  0.000e+00
     3.5753   3.295068   1799.169  800517571  0.000e+00
     3.5769   3.295246   1799.169  800517581  0.000e+00
     3.5772   3.295289   1799.166  800517591  0.000e+00
     3.5777   3.295344   1799.166  800517601  0.000e+00
     3.5779   3.295387   1799.166  800517611  0.000e+00
     3.5781   3.295429   1799.166  800517621  0.000e+00
     3.5784   3.295429   1799.163  800517631  0.000e+00
     3.5781   3.295454   1799.163  800517641  0.000e+00
     3.5785   3.295448   1799.163  800517651  0.000e+00
     3.5793   3.295485   1799.163  800517661  0.000e+00
     3.5792   3.295515   1799.161  800517671  0.000e+00
     3.5793   3.295491   1799.163  800517681  0.000e+00
     3.5801   3.295276   1799.163  800517691  0.000e+00
     3.5845   3.295209   1799.161  800517701  0.000e+00
     3.5950   3.295766   1799.163  800517711  0.000e+00
     3.6285   3.298371   1799.161  800517721  0.000e+00
     3.6343   3.298543   1799.161  800517731  0.000e+00
     3.6376   3.298494   1799.163  800517741  0.000e+00
     3.6408   3.298322   1799.163  800517751  0.000e+00
     3.6477   3.298512   1799.161  800517761  0.000e+00
     3.6641   3.299567   1799.161  800517771  0.000e+00
     3.6729   3.300076   1799.161  800517781  0.000e+00
     3.6758   3.300014   1799.161  800517791  0.000e+00
     3.6817   3.300259   1799.161  800517801  0.000e+00
     3.6827   3.300094   1799.161  800517811  0.000e+00
     3.6826   3.300118   1799.158  800517821  0.000e+00
     3.6815   3.300063   1799.161  800517831  0.000e+00
     3.6819   3.300094   1799.161  800517841  0.000e+00
     3.6836   3.300266   1799.158  800517851  0.000e+00
     3.6840   3.300327   1799.158  800517861  0.000e+00
     3.6847   3.300364   1799.158  800517871  0.000e+00
     3.6844   3.300345   1799.158  800517881  0.000e+00
     3.6844   3.300370   1799.158  800517891  0.000e+00
     3.6843   3.300339   1799.158  800517901  0.000e+00
     3.6838   3.300302   1799.158  800517911  0.000e+00
     3.6837   3.300278   1799.156  800517921  0.000e+00
     3.6836   3.300272   1799.158  800517931  0.000e+00
     3.6834   3.300259   1799.156  800517941  0.000e+00
     3.6834   3.300290   1799.158  800517951  0.000e+00
     3.6838   3.300315   1799.156  800517961  0.000e+00
     3.6836   3.300296   1799.156  800517971  0.000e+00
     3.6837   3.300278   1799.156  800517981  0.000e+00
     3.6836   3.300296   1799.156  800517991  0.000e+00
     3.6835   3.300284   1799.156  800518001  0.000e+00
     3.6837   3.300272   1799.156  800518011  0.000e+00
     3.6834   3.300290   1799.156  800518021  0.000e+00
     3.6835   3.300284   1799.156  800518031  0.000e+00
     3.6835   3.300235   1799.156  800518041  0.000e+00
     3.6829   3.300217   1799.156  800518051  0.000e+00
     3.6827   3.300198   1799.153  800518061  0.000e+00
     3.6824   3.300167   1799.156  800518071  0.000e+00
     3.6824   3.300180   1799.156  800518081  0.000e+00
     3.6827   3.300198   1799.153  800518091  0.000e+00
     3.6823   3.300161   1799.156  800518101  0.000e+00
     3.6826   3.300174   1799.153  800518111  0.000e+00
     3.6823   3.300161   1799.156  800518121  0.000e+00
     3.6822   3.300167   1799.156  800518131  0.000e+00
     3.6820   3.300143   1799.153  800518141  0.000e+00
     3.6821   3.300131   1799.153  800518151  0.000e+00
     3.6822   3.300143   1799.156  800518161  0.000e+00
     3.6822   3.300161   1799.153  800518171  0.000e+00
     3.6823   3.300155   1799.156  800518181  0.000e+00
     3.6822   3.300161   1799.156  800518191  0.000e+00
     3.6825   3.300167   1799.156  800518201  0.000e+00
     3.6822   3.300161   1799.156  800518211  0.000e+00
     3.6822   3.300155   1799.153  800518221  0.000e+00
     3.6819   3.300143   1799.153  800518231  0.000e+00
     3.6817   3.300125   1799.153  800518241  0.000e+00
     3.6815   3.300106   1799.156  800518251  0.000e+00
     3.6818   3.300118   1799.156  800518261  0.000e+00
     3.6815   3.300057   1799.156  800518271  0.000e+00
     3.6813   3.299953   1799.156  800518281  0.000e+00
     3.6807   3.299560   1799.153  800518291  0.000e+00
     3.6809   3.299235   1798.303  800518301  0.000e+00
     3.6863   3.299319   1791.702  800518311  0.000e+00
     3.6854   3.298949   1784.533  800518321  0.000e+00
     3.6880   3.298891   1776.745  800518331  0.000e+00
     3.6908   3.298754   1768.665  800518341  0.000e+00
     3.7110   3.300106   1761.380  800518351  0.000e+00
     3.7155   3.300214   1753.525  800518361  0.000e+00
     3.7215   3.300414   1745.763  800518371  0.000e+00
     3.7241   3.300301   1737.856  800518381  0.000e+00
     3.7238   3.299974   1730.919  800518391  0.000e+00
     3.7314   3.300303   1723.532  800518401  0.000e+00
     3.7330   3.300202   1717.462  800518411  0.000e+00
     3.7308   3.300074   1717.428  800518421  0.000e+00
     3.7322   3.300196   1717.506  800518431  0.000e+00
     3.7319   3.300202   1717.291  800518441  0.000e+00
     3.7329   3.300282   1717.856  800518451  0.000e+00
     3.7327   3.300288   1717.914  800518461  0.000e+00
     3.7329   3.300319   1717.630  800518471  0.000e+00
     3.7334   3.300350   1717.404  800518481  0.000e+00
     3.7335   3.300356   1717.482  800518491  0.000e+00
     3.7339   3.300399   1717.674  800518501  0.000e+00
     3.7333   3.300362   1717.781  800518511  0.000e+00
     3.7338   3.300399   1717.569  800518521  0.000e+00
     3.7363   3.300422   1713.782  800518531  0.000e+00
     3.7200   3.298323   1705.867  800518541  0.000e+00
     3.7226   3.298081   1697.687  800518551  0.000e+00
     3.7287   3.298293   1689.922  800518561  0.000e+00
     3.7515   3.300025   1681.954  800518571  0.000e+00
     3.7597   3.300477   1673.982  800518581  0.000e+00
     3.7710   3.301204   1665.828  800518591  0.000e+00
     3.7767   3.301447   1657.941  800518601  0.000e+00
     3.7875   3.302039   1650.126  800518611  0.000e+00
     3.7895   3.301877   1642.204  800518621  0.000e+00
     3.7995   3.302457   1634.710  800518631  0.000e+00
     3.8115   3.303197   1627.450  800518641  0.000e+00
     3.8170   3.303397   1620.048  800518651  0.000e+00
     3.8254   3.303991   1616.103  800518661  0.000e+00
     3.8199   3.303611   1616.499  800518671  0.000e+00
     3.8203   3.303672   1616.286  800518681  0.000e+00
     3.8319   3.304641   1615.799  800518691  0.000e+00
     3.8336   3.304856   1616.286  800518701  0.000e+00
     3.8330   3.304856   1616.242  800518711  0.000e+00
     3.8338   3.304930   1616.101  800518721  0.000e+00
     3.8340   3.304960   1616.050  800518731  0.000e+00
     3.8340   3.304991   1616.431  800518741  0.000e+00
     3.8343   3.304979   1616.036  800518751  0.000e+00
     3.8338   3.304973   1616.455  800518761  0.000e+00
     3.8340   3.304985   1616.191  800518771  0.000e+00
     3.8342   3.304985   1616.147  800518781  0.000e+00
     3.8339   3.304960   1616.221  800518791  0.000e+00
     3.8340   3.304979   1616.005  800518801  0.000e+00
     3.8333   3.304948   1616.677  800518811  0.000e+00
     3.8336   3.304960   1616.245  800518821  0.000e+00
     3.8334   3.304960   1616.417  800518831  0.000e+00
     3.8340   3.304979   1616.222  800518841  0.000e+00
     3.8341   3.304985   1616.358  800518851  0.000e+00
     3.8340   3.304960   1616.397  800518861  0.000e+00
     3.8340   3.304985   1616.154  800518871  0.000e+00
     3.8344   3.305009   1616.025  800518881  0.000e+00
     3.8339   3.304985   1616.359  800518891  0.000e+00
     3.8345   3.305009   1616.207  800518901  0.000e+00
     3.8343   3.305009   1616.177  800518911  0.000e+00
     3.8347   3.305028   1615.879  800518921  0.000e+00
     3.8351   3.305083   1616.363  800518931  0.000e+00
     3.8349   3.305077   1616.490  800518941  0.000e+00
     3.8349   3.305071   1616.068  800518951  0.000e+00
     3.8350   3.305052   1616.059  800518961  0.000e+00
     3.8353   3.305114   1616.140  800518971  0.000e+00
     3.8349   3.305083   1616.397  800518981  0.000e+00
     3.8360   3.305193   1616.442  800518991  0.000e+00
     3.8364   3.305187   1615.835  800519001  0.000e+00
     3.8358   3.305163   1616.318  800519011  0.000e+00
     3.8369   3.305236   1616.188  800519021  0.000e+00
     3.8363   3.305230   1616.569  800519031  0.000e+00
     3.8366   3.305249   1616.425  800519041  0.000e+00
     3.8370   3.305285   1616.455  800519051  0.000e+00
     3.8374   3.305304   1616.188  800519061  0.000e+00
     3.8380   3.305335   1616.326  800519071  0.000e+00
     3.8417   3.305450   1611.633  800519081  0.000e+00
     3.8547   3.306282   1603.957  800519091  0.000e+00
     3.8615   3.306635   1595.498  800519101  0.000e+00
     3.8724   3.307276   1587.082  800519111  0.000e+00
     3.8937   3.308888   1578.996  800519121  0.000e+00
     3.9064   3.309690   1571.317  800519131  0.000e+00
     3.9148   3.310190   1562.999  800519141  0.000e+00
     3.9304   3.311281   1555.189  800519151  0.000e+00
     3.9380   3.311720   1547.872  800519161  0.000e+00
     3.9434   3.311945   1540.236  800519171  0.000e+00
     3.9488   3.312152   1532.785  800519181  0.000e+00
     3.9579   3.312696   1525.544  800519191  0.000e+00
     3.9639   3.312976   1518.150  800519201  0.000e+00
     3.9644   3.312895   1514.332  800519211  0.000e+00
     3.9628   3.312833   1514.645  800519221  0.000e+00
     3.9634   3.312926   1514.877  800519231  0.000e+00
     3.9647   3.313055   1515.093  800519241  0.000e+00
     3.9652   3.313110   1514.736  800519251  0.000e+00
     3.9649   3.313091   1514.525  800519261  0.000e+00
     3.9653   3.313165   1515.251  800519271  0.000e+00
     3.9648   3.313104   1514.878  800519281  0.000e+00
     3.9651   3.313141   1514.892  800519291  0.000e+00
     3.9650   3.313153   1515.131  800519301  0.000e+00
     3.9653   3.313104   1514.213  800519311  0.000e+00
     3.9637   3.312677   1506.935  800519321  0.000e+00
     3.9787   3.313719   1499.095  800519331  0.000e+00
     3.9901   3.314404   1491.216  800519341  0.000e+00
     3.9973   3.314752   1483.491  800519351  0.000e+00
     4.0190   3.316383   1475.488  800519361  0.000e+00
     4.0339   3.317517   1467.381  800519371  0.000e+00
     4.0487   3.318584   1459.638  800519381  0.000e+00
     4.0577   3.319153   1451.826  800519391  0.000e+00
     4.0656   3.319568   1443.615  800519401  0.000e+00
     4.0774   3.320426   1436.047  800519411  0.000e+00
     4.0856   3.320780   1429.019  800519421  0.000e+00
     4.0893   3.320950   1422.280  800519431  0.000e+00
     4.1399   3.325486   1414.990  800519441  0.000e+00
     4.1825   3.329371   1407.441  800519451  0.000e+00
     4.2068   3.331430   1400.026  800519461  0.000e+00
     4.1648   3.326893   1392.209  800519471  0.000e+00
     4.1493   3.324959   1384.980  800519481  0.000e+00
     4.1534   3.324920   1377.591  800519491  0.000e+00
     4.1766   3.326609   1369.647  800519501  0.000e+00
     4.1878   3.327283   1363.429  800519511  0.000e+00
     4.1850   3.327179   1363.104  800519521  0.000e+00
     4.1809   3.326871   1363.400  800519531  0.000e+00
     4.1827   3.327062   1363.953  800519541  0.000e+00
     4.1912   3.327837   1363.139  800519551  0.000e+00
     4.1933   3.328028   1363.398  800519561  0.000e+00
     4.1939   3.328108   1363.230  800519571  0.000e+00
     4.1930   3.328040   1363.989  800519581  0.000e+00
     4.1939   3.328132   1363.439  800519591  0.000e+00
     4.1942   3.328157   1363.640  800519601  0.000e+00
     4.1942   3.328163   1363.365  800519611  0.000e+00
     4.1943   3.328181   1363.008  800519621  0.000e+00
     4.2054   3.328850   1355.596  800519631  0.000e+00
     4.2176   3.329690   1347.625  800519641  0.000e+00
     4.3277   3.340025   1340.008  800519651  0.000e+00
     4.3774   3.344860   1332.388  800519661  0.000e+00
     4.4134   3.348143   1324.092  800519671  0.000e+00
     4.4226   3.348917   1316.224  800519681  0.000e+00
     4.4314   3.349593   1308.430  800519691  0.000e+00
     4.4493   3.350985   1300.860  800519701  0.000e+00
     4.4427   3.349829   1292.992  800519711  0.000e+00
     4.4213   3.347353   1285.031  800519721  0.000e+00
     4.4048   3.345347   1277.261  800519731  0.000e+00
     4.4480   3.348970   1269.590  800519741  0.000e+00
     4.4540   3.349226   1261.459  800519751  0.000e+00
     4.4896   3.352308   1253.845  800519761  0.000e+00
     4.5166   3.354508   1246.192  800519771  0.000e+00
     4.5474   3.357184   1238.809  800519781  0.000e+00
     4.5636   3.358583   1231.251  800519791  0.000e+00
     4.5820   3.360131   1223.959  800519801  0.000e+00
     4.5895   3.360573   1216.547  800519811  0.000e+00
     4.5862   3.360078   1212.705  800519821  0.000e+00
     4.5833   3.359893   1213.228  800519831  0.000e+00
     4.5756   3.359047   1212.712  800519841  0.000e+00
     4.5744   3.358973   1212.915  800519851  0.000e+00
     4.5731   3.358868   1212.961  800519861  0.000e+00
     4.5790   3.359473   1212.827  800519871  0.000e+00
     4.5788   3.359479   1213.326  800519881  0.000e+00
     4.5783   3.359405   1213.154  800519891  0.000e+00
     4.5759   3.359164   1212.865  800519901  0.000e+00
     4.5749   3.359053   1212.437  800519911  0.000e+00
     4.5748   3.359059   1213.345  800519921  0.000e+00
     4.5753   3.359021   1210.752  800519931  0.000e+00
     4.5870   3.359568   1202.665  800519941  0.000e+00
     4.5816   3.358664   1194.465  800519951  0.000e+00
     4.6507   3.364664   1186.576  800519961  0.000e+00
     4.6491   3.364143   1178.868  800519971  0.000e+00
     4.7108   3.369467   1170.639  800519981  0.000e+00
     4.7627   3.374318   1162.240  800519991  0.000e+00
     4.8171   3.379383   1154.249  800520001  0.000e+00
     4.8774   3.385262   1146.278  800520011  0.000e+00
     4.9769   3.394659   1138.399  800520021  0.000e+00
     4.9859   3.395543   1131.412  800520031  0.000e+00
     5.0565   3.402290   1124.413  800520041  0.000e+00
     5.0753   3.403919   1117.129  800520051  0.000e+00
     5.0811   3.404457   1111.368  800520061  0.000e+00
     5.0815   3.404693   1111.760  800520071  0.000e+00
     5.0828   3.404960   1111.277  800520081  0.000e+00
     5.0857   3.405289   1111.574  800520091  0.000e+00
     5.0875   3.405525   1111.798  800520101  0.000e+00
     5.0887   3.405711   1111.358  800520111  0.000e+00
     5.0890   3.405792   1111.642  800520121  0.000e+00
     5.0918   3.406009   1111.418  800520131  0.000e+00
     5.0901   3.405960   1111.845  800520141  0.000e+00
     5.0909   3.406022   1111.915  800520151  0.000e+00
     5.0905   3.405997   1111.802  800520161  0.000e+00
     5.0892   3.405786   1110.611  800520171  0.000e+00
     5.1026   3.406714   1103.037  800520181  0.000e+00
     5.1399   3.409878   1094.652  800520191  0.000e+00
     5.1700   3.412398   1086.758  800520201  0.000e+00
     5.2409   3.418659   1078.180  800520211  0.000e+00
     5.2953   3.423774   1069.817  800520221  0.000e+00
     5.3139   3.425333   1061.909  800520231  0.000e+00
     5.3549   3.429027   1053.413  800520241  0.000e+00
     5.4141   3.434360   1045.259  800520251  0.000e+00
     5.4864   3.441136   1037.451  800520261  0.000e+00
     5.5277   3.445061   1030.583  800520271  0.000e+00
     5.5553   3.447616   1023.222  800520281  0.000e+00
     5.5813   3.449885   1016.624  800520291  0.000e+00
     5.6231   3.453889   1009.110  800520301  0.000e+00
     5.6865   3.459824   1001.858  800520311  0.000e+00
     5.7172   3.462639    994.086  800520321  0.000e+00
     5.7432   3.465024    986.189  800520331  0.000e+00
     5.7877   3.469304    978.997  800520341  0.000e+00
     5.8300   3.472935    971.056  800520351  0.000e+00
     5.8811   3.477619    963.379  800520361  0.000e+00
     5.9152   3.480721    955.509  800520371  0.000e+00
     5.9750   3.486242    947.989  800520381  0.000e+00
     5.9769   3.486541    943.133  800520391  0.000e+00
     5.9685   3.485959    943.476  800520401  0.000e+00
     5.9844   3.487613    943.371  800520411  0.000e+00
     5.9946   3.488641    943.072  800520421  0.000e+00
     5.9988   3.489123    943.210  800520431  0.000e+00
     5.9945   3.488904    943.516  800520441  0.000e+00
     5.9997   3.489305    943.308  800520451  0.000e+00
     5.9993   3.489349    943.339  800520461  0.000e+00
     5.9985   3.489261    943.097  800520471  0.000e+00
     5.9967   3.489154    943.133  800520481  0.000e+00
     5.9998   3.489455    943.516  800520491  0.000e+00
     5.9983   3.489292    943.376  800520501  0.000e+00
     5.9977   3.489336    942.991  800520511  0.000e+00
     6.0528   3.493891    935.580  800520521  0.000e+00
     6.0687   3.495118    927.966  800520531  0.000e+00
     6.1102   3.498897    920.349  800520541  0.000e+00
     6.2120   3.508191    912.869  800520551  0.000e+00
     6.2601   3.512605    905.053  800520561  0.000e+00
     6.2937   3.515933    897.592  800520571  0.000e+00
     6.3472   3.520779    890.022  800520581  0.000e+00
     6.4191   3.527464    882.420  800520591  0.000e+00
     6.4476   3.530011    874.679  800520601  0.000e+00
     6.5439   3.539092    866.777  800520611  0.000e+00
     6.5544   3.539959    859.946  800520621  0.000e+00
     6.5469   3.539707    859.922  800520631  0.000e+00
     6.5633   3.541239    859.376  800520641  0.000e+00
     6.5726   3.542298    859.640  800520651  0.000e+00
     6.5734   3.542430    859.602  800520661  0.000e+00
     6.5770   3.542846    859.654  800520671  0.000e+00
     6.5804   3.543244    859.413  800520681  0.000e+00
     6.5760   3.542834    859.549  800520691  0.000e+00
     6.5779   3.543055    859.678  800520701  0.000e+00
     6.5799   3.543319    859.560  800520711  0.000e+00
     6.5784   3.543168    859.367  800520721  0.000e+00
     6.6029   3.545406    856.266  800520731  0.000e+00
     6.6822   3.552829    848.107  800520741  0.000e+00
     6.6312   3.546251    839.321  800520751  0.000e+00
     6.7165   3.554369    830.876  800520761  0.000e+00
     6.7727   3.558926    822.722  800520771  0.000e+00
     6.8147   3.562189    814.960  800520781  0.000e+00
     6.8974   3.569633    807.716  800520791  0.000e+00
     6.9967   3.579102    800.087  800520801  0.000e+00
     7.0133   3.580201    792.539  800520811  0.000e+00
     7.0215   3.580984    785.357  800520821  0.000e+00
     7.1053   3.588627    777.939  800520831  0.000e+00
     7.1671   3.593943    770.498  800520841  0.000e+00
     7.2397   3.600543    762.982  800520851  0.000e+00
     7.2803   3.604120    755.619  800520861  0.000e+00
     7.3030   3.605832    748.461  800520871  0.000e+00
     7.3886   3.613579    740.755  800520881  0.000e+00
     7.4445   3.618947    733.450  800520891  0.000e+00
     7.4615   3.620102    725.499  800520901  0.000e+00
     7.6624   3.640574    718.047  800520911  0.000e+00
     7.9695   3.671555    710.750  800520921  0.000e+00
     7.9759   3.673549    706.710  800520931  0.000e+00
     7.9747   3.674074    706.519  800520941  0.000e+00
     7.9954   3.676626    706.345  800520951  0.000e+00
     7.9917   3.676620    707.058  800520961  0.000e+00
     7.9946   3.677139    707.226  800520971  0.000e+00
     7.9948   3.677247    706.979  800520981  0.000e+00
     7.9913   3.676978    706.781  800520991  0.000e+00
     7.9926   3.677183    706.854  800521001  0.000e+00
     7.9939   3.677407    707.116  800521011  0.000e+00
     7.9956   3.677561    706.973  800521021  0.000e+00
     7.9953   3.677548    707.147  800521031  0.000e+00
     7.9941   3.677414    706.627  800521041  0.000e+00
     7.9961   3.677663    706.859  800521051  0.000e+00
     7.9955   3.677599    707.249  800521061  0.000e+00
     7.9974   3.677830    706.972  800521071  0.000e+00
     7.9966   3.677778    706.906  800521081  0.000e+00
     7.9979   3.677849    706.871  800521091  0.000e+00
     7.9974   3.677855    707.560  800521101  0.000e+00
     7.9966   3.677772    706.932  800521111  0.000e+00
     7.9975   3.677830    706.863  800521121  0.000e+00
     7.9996   3.678092    707.020  800521131  0.000e+00
     7.9983   3.677964    707.134  800521141  0.000e+00
     7.9978   3.677894    707.116  800521151  0.000e+00
     7.9969   3.677823    707.084  800521161  0.000e+00
     7.9980   3.677926    707.391  800521171  0.000e+00
     7.9999   3.678118    706.784  800521181  0.000e+00
     8.0022   3.678277    705.614  800521191  0.000e+00
     8.1129   3.688353    698.251  800521201  0.000e+00
     8.1217   3.688869    690.203  800521211  0.000e+00
     8.1697   3.693218    682.602  800521221  0.000e+00
     8.1465   3.691103    681.090  800521231  0.000e+00
     8.1708   3.693590    681.221  800521241  0.000e+00
     8.1514   3.691840    681.312  800521251  0.000e+00
     8.1580   3.692493    681.224  800521261  0.000e+00
     8.1621   3.692840    681.288  800521271  0.000e+00
     8.1659   3.693327    681.389  800521281  0.000e+00
     8.1664   3.693346    681.167  800521291  0.000e+00
     8.1717   3.693807    680.974  800521301  0.000e+00
     8.1696   3.693615    681.492  800521311  0.000e+00
     8.1906   3.695724    681.036  800521321  0.000e+00
     8.2289   3.699167    676.406  800521331  0.000e+00
     8.2826   3.704027    668.276  800521341  0.000e+00
     8.3547   3.710508    660.329  800521351  0.000e+00
     8.3875   3.713126    652.677  800521361  0.000e+00
     8.4572   3.719183    644.848  800521371  0.000e+00
     8.5329   3.725765    636.844  800521381  0.000e+00
     8.5801   3.729777    629.199  800521391  0.000e+00
     8.6944   3.739742    621.273  800521401  0.000e+00
     8.7664   3.746338    613.455  800521411  0.000e+00
     8.7914   3.748650    605.563  800521421  0.000e+00
     8.7878   3.748818    605.697  800521431  0.000e+00
     8.7716   3.747632    605.866  800521441  0.000e+00
     8.7870   3.749011    605.558  800521451  0.000e+00
     8.7922   3.749650    606.278  800521461  0.000e+00
     8.7926   3.749689    605.685  800521471  0.000e+00
     8.7916   3.749669    605.749  800521481  0.000e+00
     8.7910   3.749630    605.338  800521491  0.000e+00
     8.7919   3.749766    606.163  800521501  0.000e+00
     8.7913   3.749676    605.682  800521511  0.000e+00
     8.7924   3.749792    605.564  800521521  0.000e+00
     8.7962   3.750075    603.635  800521531  0.000e+00
     8.8421   3.753742    595.452  800521541  0.000e+00
     8.9510   3.763959    587.885  800521551  0.000e+00
     9.0490   3.773372    580.095  800521561  0.000e+00
     9.1041   3.778614    571.608  800521571  0.000e+00
     9.1399   3.782059    563.542  800521581  0.000e+00
     9.2025   3.788032    556.139  800521591  0.000e+00
     9.2311   3.790872    547.941  800521601  0.000e+00
     9.3157   3.799275    540.325  800521611  0.000e+00
     9.4098   3.808412    532.837  800521621  0.000e+00
     9.4399   3.811616    525.435  800521631  0.000e+00
     9.4692   3.814437    518.617  800521641  0.000e+00
     9.4692   3.814136    511.732  800521651  0.000e+00
     9.4546   3.812166    504.077  800521661  0.000e+00
     9.5098   3.817151    496.950  800521671  0.000e+00
     9.5622   3.822307    489.557  800521681  0.000e+00
     9.5818   3.824189    481.880  800521691  0.000e+00
     9.6025   3.826091    474.748  800521701  0.000e+00
     9.6417   3.830030    467.430  800521711  0.000e+00
     9.6694   3.832271    459.447  800521721  0.000e+00
     9.6763   3.832998    456.112  800521731  0.000e+00
     9.6757   3.833148    456.313  800521741  0.000e+00
     9.6774   3.833376    456.101  800521751  0.000e+00
     9.6775   3.833467    456.091  800521761  0.000e+00
     9.6792   3.833610    456.519  800521771  0.000e+00
     9.6778   3.833532    456.246  800521781  0.000e+00
     9.6775   3.833519    456.120  800521791  0.000e+00
     9.6782   3.833604    456.538  800521801  0.000e+00
     9.6759   3.833467    456.584  800521811  0.000e+00
     9.6764   3.833447    456.112  800521821  0.000e+00
     9.6752   3.833291    456.416  800521831  0.000e+00
     9.6766   3.833435    456.351  800521841  0.000e+00
     9.6753   3.833409    456.561  800521851  0.000e+00
     9.6738   3.833239    456.305  800521861  0.000e+00
     9.6741   3.833220    456.574  800521871  0.000e+00
     9.6746   3.833200    456.360  800521881  0.000e+00
     9.6759   3.833337    456.112  800521891  0.000e+00
     9.6740   3.833187    456.311  800521901  0.000e+00
     9.6745   3.833253    456.922  800521911  0.000e+00
     9.6749   3.833331    456.521  800521921  0.000e+00
     9.6745   3.833239    456.241  800521931  0.000e+00
     9.6743   3.833252    456.662  800521941  0.000e+00
     9.6737   3.833207    456.610  800521951  0.000e+00
     9.6753   3.833330    456.134  800521961  0.000e+00
     9.6732   3.833142    456.389  800521971  0.000e+00
     9.6733   3.833148    456.624  800521981  0.000e+00
     9.6721   3.833018    456.351  800521991  0.000e+00
     9.6723   3.833044    456.351  800522001  0.000e+00
     9.6706   3.832868    456.351  800522011  0.000e+00
     9.6704   3.832895    456.586  800522021  0.000e+00
     9.6702   3.832849    456.448  800522031  0.000e+00
     9.6718   3.832999    456.158  800522041  0.000e+00
     9.6726   3.833077    456.486  800522051  0.000e+00
     9.6724   3.833038    456.541  800522061  0.000e+00
     9.6732   3.833142    456.561  800522071  0.000e+00
     9.6726   3.833090    456.533  800522081  0.000e+00
     9.6721   3.833031    456.282  800522091  0.000e+00
     9.6716   3.832973    456.382  800522101  0.000e+00
     9.6708   3.832894    456.288  800522111  0.000e+00
     9.6697   3.832817    456.772  800522121  0.000e+00
     9.6696   3.832804    456.658  800522131  0.000e+00
     9.6698   3.832823    456.302  800522141  0.000e+00
     9.6702   3.832803    456.226  800522151  0.000e+00
     9.6695   3.832797    456.886  800522161  0.000e+00
     9.6699   3.832816    456.482  800522171  0.000e+00
     9.6693   3.832771    456.713  800522181  0.000e+00
     9.6698   3.832790    456.622  800522191  0.000e+00
     9.6699   3.832791    456.671  800522201  0.000e+00
     9.6692   3.832732    456.478  800522211  0.000e+00
     9.6671   3.832563    456.669  800522221  0.000e+00
     9.6686   3.832667    456.198  800522231  0.000e+00
     9.6672   3.832543    456.716  800522241  0.000e+00
     9.6675   3.832576    456.495  800522251  0.000e+00
     9.6684   3.832621    456.405  800522261  0.000e+00
     9.6693   3.832725    456.105  800522271  0.000e+00
     9.6791   3.833439    451.740  800522281  0.000e+00
     9.7315   3.838207    443.686  800522291  0.000e+00
     9.7958   3.843765    435.361  800522301  0.000e+00
     9.8670   3.850461    427.440  800522311  0.000e+00
     9.9198   3.855459    419.321  800522321  0.000e+00
     9.9839   3.861530    411.327  800522331  0.000e+00
    10.0308   3.866011    403.304  800522341  0.000e+00
    10.0879   3.871625    396.609  800522351  0.000e+00
    10.0805   3.870329    389.314  800522361  0.000e+00
    10.0796   3.869837    382.355  800522371  0.000e+00
    10.0777   3.869207    375.354  800522381  0.000e+00
    10.0751   3.868296    367.502  800522391  0.000e+00
    10.2389   3.885812    360.189  800522401  0.000e+00
    10.2467   3.886726    353.772  800522411  0.000e+00
    10.2427   3.886758    353.830  800522421  0.000e+00
    10.2455   3.887145    354.370  800522431  0.000e+00
    10.2372   3.886353    354.473  800522441  0.000e+00
    10.2345   3.886327    353.892  800522451  0.000e+00
    10.2276   3.885267    353.954  800522461  0.000e+00
    10.2280   3.885293    353.971  800522471  0.000e+00
    10.2300   3.885574    354.389  800522481  0.000e+00
    10.2248   3.885136    354.171  800522491  0.000e+00
    10.2289   3.885489    354.198  800522501  0.000e+00
    10.2300   3.885574    353.642  800522511  0.000e+00
    10.2319   3.885836    353.876  800522521  0.000e+00
    10.2539   3.887750    346.632  800522531  0.000e+00
    10.2101   3.882252    338.094  800522541  0.000e+00
    10.0667   3.864893    330.272  800522551  0.000e+00
    10.0584   3.862886    322.307  800522561  0.000e+00
    10.0859   3.864665    314.246  800522571  0.000e+00
    10.1361   3.868358    306.754  800522581  0.000e+00
    10.1377   3.868428    303.298  800522591  0.000e+00
    10.1407   3.868768    303.378  800522601  0.000e+00
    10.1362   3.868461    303.928  800522611  0.000e+00
    10.1390   3.868716    303.416  800522621  0.000e+00
    10.1391   3.868749    303.624  800522631  0.000e+00
    10.1385   3.868690    303.547  800522641  0.000e+00
    10.1392   3.868814    303.897  800522651  0.000e+00
    10.1377   3.868644    303.402  800522661  0.000e+00
    10.1380   3.868638    303.592  800522671  0.000e+00
    10.1393   3.868762    303.675  800522681  0.000e+00
    10.1373   3.868420    299.314  800522691  0.000e+00
    10.2365   3.877486    291.019  800522701  0.000e+00
    10.3311   3.887163    283.135  800522711  0.000e+00
    10.4568   3.900236    274.770  800522721  0.000e+00
    10.5550   3.910808    266.581  800522731  0.000e+00
    10.6498   3.921359    258.513  800522741  0.000e+00
    10.7070   3.927517    250.710  800522751  0.000e+00
    10.7496   3.931662    244.146  800522761  0.000e+00
    10.8014   3.936808    236.983  800522771  0.000e+00
    10.8324   3.939746    229.657  800522781  0.000e+00
    10.8532   3.941480    221.791  800522791  0.000e+00
    10.8831   3.944175    214.201  800522801  0.000e+00
    10.9211   3.947886    206.818  800522811  0.000e+00
    10.9552   3.950978    198.743  800522821  0.000e+00
    11.0038   3.955897    191.366  800522831  0.000e+00
    11.0278   3.958029    183.845  800522841  0.000e+00
    11.0663   3.961613    175.709  800522851  0.000e+00
    11.0821   3.963107    168.366  800522861  0.000e+00
    11.1123   3.965815    160.795  800522871  0.000e+00
    11.1326   3.967547    152.648  800522881  0.000e+00
    11.1669   3.970936    145.196  800522891  0.000e+00
    11.2675   3.981308    137.741  800522901  0.000e+00
    11.3207   3.987187    130.099  800522911  0.000e+00
    11.3155   3.986371    122.085  800522921  0.000e+00
    11.3111   3.985549    114.923  800522931  0.000e+00
    11.3040   3.984184    107.023  800522941  0.000e+00
    11.2815   3.980804     99.570  800522951  0.000e+00
    11.3096   3.983246     91.520  800522961  0.000e+00
    11.3137   3.983296     84.485  800522971  0.000e+00
    11.3141   3.982612     77.307  800522981  0.000e+00
    11.3119   3.980839     70.137  800522991  0.000e+00
    11.3161   3.980440     63.544  800523001  0.000e+00
    11.3274   3.981058     55.797  800523011  0.000e+00
    11.3587   3.983229     47.926  800523021  0.000e+00
    11.4413   3.990134     40.708  800523031  0.000e+00
    11.5525   3.999791     33.186  800523041  0.000e+00
    11.5874   4.002491     29.804  800523051  0.000e+00
    11.6974   4.013005     30.372  800523061  0.000e+00
    11.6993   4.013741     30.199  800523071  0.000e+00
    11.6960   4.013701     30.251  800523081  0.000e+00
    11.6893   4.013217     30.413  800523091  0.000e+00
    11.6846   4.013012     30.306  800523101  0.000e+00
    11.6788   4.012548     30.496  800523111  0.000e+00
    11.6743   4.012276     30.313  800523121  0.000e+00
    11.6723   4.011965     30.219  800523131  0.000e+00
    11.7150   4.016194     28.951  800523141  0.000e+00
    11.9312   4.035873     26.837  800523151  0.000e+00
    12.0766   4.049235     25.087  800523161  0.000e+00
    12.1035   4.052588     22.841  800523171  0.000e+00
    12.1239   4.054764     21.098  800523181  0.000e+00
    12.1686   4.059391     18.957  800523191  0.000e+00
    12.2523   4.067098     15.335  800523201  0.000e+00
    12.3477   4.076671      9.260  800523211  0.000e+00
    12.3597   4.078204      4.505  800523221  0.000e+00
    12.3611   4.078618      5.181  800523231  0.000e+00
    12.3602   4.078758      4.706  800523241  0.000e+00
    12.3597   4.078918      4.772  800523251  0.000e+00
    12.3590   4.078891      4.754  800523261  0.000e+00
    12.3582   4.078918      4.907  800523271  0.000e+00
    12.3618   4.079338      4.775  800523281  0.000e+00
    12.3573   4.078898      4.938  800523291  0.000e+00
    12.3626   4.079358      4.900  800523301  0.000e+00
    12.3632   4.079465      4.727  800523311  0.000e+00
    12.3656   4.079564      1.857  800523321  0.000e+00
    12.3798   0.812348      0.134  800523331  0.000e+00
    12.3893   0.898353      0.134  800523341  0.000e+00
    12.4160   0.094811      0.127  800523351  0.000e+00
    12.4431   0.068142      0.127  800523361  0.000e+00
    12.4516   0.058480      0.124  800523371  0.000e+00
    12.4573   0.054103      0.124  800523381  0.000e+00
    12.4654   0.050124      0.120  800523391  0.000e+00
    12.4762   0.049610      0.124  800523401  0.000e+00
    12.4879   0.047055      0.117  800523411  0.000e+00
    12.4979   0.045111      0.113  800523421  0.000e+00
    12.5084   0.044164      0.117  800523431  0.000e+00
    12.5211   0.042715      0.117  800523441  0.000e+00
    12.5346   0.042176      0.117  800523451  0.000e+00
    12.5491   0.039806      0.113  800523461  0.000e+00
    12.5577   0.037861      0.106  800523471  0.000e+00
    12.5690   0.037607      0.106  800523481  0.000e+00
    12.5798   0.038198      0.110  800523491  0.000e+00
    12.5921   0.038324      0.106  800523501  0.000e+00
    12.6048   0.038123      0.109  800523511  0.000e+00
    12.6156   0.037436      0.106  800523521  0.000e+00
    12.6244   0.036881      0.103  800523531  0.000e+00
    12.6342   0.036236      0.103  800523541  0.000e+00
    12.6451   0.036406      0.103  800523551  0.000e+00
    12.6543   0.035702      0.099  800523561  0.000e+00
    12.6626   0.035398      0.099  800523571  0.000e+00
    12.6742   0.035720      0.099  800523581  0.000e+00
    12.6838   0.035084      0.099  800523591  0.000e+00
    12.6929   0.034568      0.099  800523601  0.000e+00
    12.7001   0.034467      0.096  800523611  0.000e+00
    12.7089   0.034386      0.096  800523621  0.000e+00
    12.7181   0.033954      0.099  800523631  0.000e+00
    12.7297   0.033617      0.096  800523641  0.000e+00
    12.7387   0.033620      0.089  800523651  0.000e+00
    12.7488   0.033844      0.092  800523661  0.000e+00
    12.7566   0.033450      0.088  800523671  0.000e+00
    12.7667   0.033018      0.092  800523681  0.000e+00
    12.7800   0.032833      0.085  800523691  0.000e+00
    12.7901   0.032458      0.088  800523701  0.000e+00
    12.8004   0.032723      0.085  800523711  0.000e+00
    12.8081   0.032824      0.088  800523721  0.000e+00
    12.8144   0.032294      0.085  800523731  0.000e+00
    12.8245   0.032005      0.088  800523741  0.000e+00
    12.8299   0.032085      0.088  800523751  0.000e+00
    12.8366   0.032270      0.085  800523761  0.000e+00
    12.8427   0.032410      0.092  800523771  0.000e+00
    12.8484   0.032142      0.085  800523781  0.000e+00
    12.8549   0.032178      0.081  800523791  0.000e+00
    12.8618   0.031767      0.085  800523801  0.000e+00
    12.8667   0.031382      0.081  800523811  0.000e+00
    12.8703   0.031317      0.085  800523821  0.000e+00
    12.8758   0.031213      0.085  800523831  0.000e+00
    12.8798   0.030882      0.085  800523841  0.000e+00
    12.8818   0.031097      0.081  800523851  0.000e+00
    12.8841   0.031484      0.081  800523861  0.000e+00
    12.8868   0.031371      0.085  800523871  0.000e+00
    12.8896   0.031275      0.081  800523881  0.000e+00
    12.8932   0.031076      0.085  800523891  0.000e+00
    12.8972   0.031061      0.081  800523901  0.000e+00
    12.8983   0.029736      0.078  800523911  0.000e+00
    12.8994   0.030296      0.078  800523921  0.000e+00
    12.8996   0.030668      0.078  800523931  0.000e+00
    12.9015   0.031168      0.078  800523941  0.000e+00
    12.9050   0.031058      0.078  800523951  0.000e+00
    12.9092   0.031371      0.081  800523961  0.000e+00
    12.9127   0.031356      0.078  800523971  0.000e+00
    12.9133   0.031513      0.071  800523981  0.000e+00
    12.9146   0.031403      0.074  800523991  0.000e+00
    12.9201   0.031296      0.078  800524001  0.000e+00
    12.9215   0.031320      0.078  800524011  0.000e+00
    12.9259   0.031338      0.081  800524021  0.000e+00
    12.9302   0.031037      0.078  800524031  0.000e+00
    12.9344   0.030656      0.078  800524041  0.000e+00
    12.9390   0.029968      0.074  800524051  0.000e+00
    12.9432   0.029588      0.078  800524061  0.000e+00
    12.9432   0.029231      0.074  800524071  0.000e+00
    12.9463   0.029046      0.074  800524081  0.000e+00
    12.9479   0.028856      0.078  800524091  0.000e+00
    12.9488   0.028686      0.074  800524101  0.000e+00
    12.9517   0.028719      0.074  800524111  0.000e+00
    12.9557   0.028719      0.074  800524121  0.000e+00
    12.9578   0.028897      0.071  800524131  0.000e+00
    12.9586   0.029064      0.074  800524141  0.000e+00
    12.9608   0.028892      0.074  800524151  0.000e+00
    12.9625   0.028814      0.074  800524161  0.000e+00
    12.9674   0.028770      0.074  800524171  0.000e+00
    12.9744   0.028716      0.071  800524181  0.000e+00
    12.9785   0.025884      0.074  800524191  0.000e+00
    12.9828   0.024046      0.074  800524201  0.000e+00
    12.9889   0.023343      0.071  800524211  0.000e+00
    13.0012   0.022964      0.071  800524221  0.000e+00
    13.0205   0.022818      0.074  800524231  0.000e+00
    13.0274   0.022620      0.071  800524241  0.000e+00
    13.0331   0.022460      0.071  800524251  0.000e+00
    13.0435   0.022383      0.071  800524261  0.000e+00
    13.0514   0.022282      0.071  800524271  0.000e+00
    13.0608   0.022353      0.085  800524281  0.000e+00
    13.0878   0.021742      0.081  800524291  0.000e+00
    13.0977   0.021831      0.081  800524301  0.000e+00
    13.1128   0.022955      0.098  800524311  0.000e+00
    13.1248   0.022249      0.105  800524321  0.000e+00
    13.1241   0.021965      0.095  800524331  0.000e+00
    13.1383   0.022211      0.095  800524341  0.000e+00
    13.1472   0.022137      0.098  800524351  0.000e+00
    13.1502   0.022006      0.095  800524361  0.000e+00
    13.1511   0.021873      0.098  800524371  0.000e+00
    13.1555   0.021796      0.098  800524381  0.000e+00
    13.1602   0.021733      0.095  800524391  0.000e+00
    13.1569   0.021636      0.095  800524401  0.000e+00
    13.1570   0.021526      0.095  800524411  0.000e+00
    13.1560   0.021446      0.095  800524421  0.000e+00
    13.1623   0.021387      0.095  800524431  0.000e+00
    13.1626   0.021316      0.098  800524441  0.000e+00
    13.1622   0.021259      0.098  800524451  0.000e+00
    13.1637   0.021283      0.095  800524461  0.000e+00
    13.1674   0.021253      0.095  800524471  0.000e+00
    13.1691   0.021212      0.098  800524481  0.000e+00
    13.1698   0.021150      0.095  800524491  0.000e+00
    13.1694   0.021067      0.095  800524501  0.000e+00
    13.1749   0.021031      0.095  800524511  0.000e+00
    13.1836   0.020954      0.091  800524521  0.000e+00
    13.1891   0.020930      0.091  800524531  0.000e+00
    13.1961   0.020898      0.091  800524541  0.000e+00
    13.2032   0.020818      0.095  800524551  0.000e+00
    13.2102   0.020785      0.095  800524561  0.000e+00
    13.2179   0.020762      0.084  800524571  0.000e+00
    13.2203   0.020714      0.091  800524581  0.000e+00
    13.2196   0.020696      0.084  800524591  0.000e+00
    13.2245   0.020625      0.088  800524601  0.000e+00
    13.2325   0.020548      0.091  800524611  0.000e+00
    13.2407   0.020519      0.091  800524621  0.000e+00
    13.2456   0.020486      0.088  800524631  0.000e+00
    13.2498   0.020457      0.091  800524641  0.000e+00
    13.2522   0.020436      0.088  800524651  0.000e+00
    13.2565   0.020409      0.091  800524661  0.000e+00
    13.2623   0.020347      0.088  800524671  0.000e+00
    13.2715   0.020311      0.091  800524681  0.000e+00
    13.2816   0.020282      0.091  800524691  0.000e+00
    13.2886   0.020261      0.088  800524701  0.000e+00
    13.2972   0.020231      0.084  800524711  0.000e+00
    13.3005   0.020184      0.088  800524721  0.000e+00
    13.3071   0.020163      0.088  800524731  0.000e+00
    13.3157   0.020146      0.088  800524741  0.000e+00
    13.3266   0.020092      0.088  800524751  0.000e+00
    13.3367   0.020086      0.084  800524761  0.000e+00
    13.3448   0.020113      0.088  800524771  0.000e+00
    13.3573   0.020030      0.088  800524781  0.000e+00
    13.3701   0.019974      0.088  800524791  0.000e+00
    13.3788   0.019992      0.088  800524801  0.000e+00
    13.3921   0.019941      0.084  800524811  0.000e+00
    13.4054   0.019918      0.084  800524821  0.000e+00
    13.4159   0.019906      0.088  800524831  0.000e+00
    13.4247   0.019852      0.084  800524841  0.000e+00
    13.4297   0.019838      0.088  800524851  0.000e+00
    13.4369   0.019799      0.088  800524861  0.000e+00
    13.4455   0.019784      0.084  800524871  0.000e+00
    13.4552   0.019749      0.088  800524881  0.000e+00
    13.4681   0.019722      0.084  800524891  0.000e+00
    13.4784   0.019704      0.084  800524901  0.000e+00
    13.4884   0.019654      0.084  800524911  0.000e+00
    13.4975   0.019645      0.084  800524921  0.000e+00
    13.5074   0.019610      0.088  800524931  0.000e+00
    13.5123   0.019598      0.081  800524941  0.000e+00
    13.5195   0.019574      0.084  800524951  0.000e+00
    13.5287   0.019553      0.081  800524961  0.000e+00
    13.5372   0.019524      0.081  800524971  0.000e+00
    13.5431   0.019476      0.081  800524981  0.000e+00
    13.5466   0.019450      0.084  800524991  0.000e+00
    13.5533   0.019399      0.081  800525001  0.000e+00
    13.5720   0.019361      0.081  800525011  0.000e+00
    13.5985   0.019322      0.081  800525021  0.000e+00
    13.6173   0.019263      0.084  800525031  0.000e+00
    13.6245   0.019234      0.084  800525041  0.000e+00
    13.6331   0.019195      0.081  800525051  0.000e+00
    13.6450   0.019163      0.081  800525061  0.000e+00
    13.6591   0.019118      0.084  800525071  0.000e+00
    13.6690   0.019074      0.081  800525081  0.000e+00
    13.6773   0.019047      0.077  800525091  0.000e+00
    13.6870   0.019009      0.088  800525101  0.000e+00
    13.7019   0.019021      0.081  800525111  0.000e+00
    13.7142   0.018988      0.087  800525121  0.000e+00
    13.7295   0.018997      0.084  800525131  0.000e+00
    13.7384   0.018976      0.077  800525141  0.000e+00
    13.7512   0.018973      0.084  800525151  0.000e+00
    13.7507   0.019251      0.056  800525161  0.000e+00
    13.7694   0.015575      0.070  800525171  0.000e+00
    13.7931   0.014397      0.063  800525181  0.000e+00
    13.8151   0.013765      0.067  800525191  0.000e+00
